TITLE,
DATA TYPE,INFRARED SPECTRUM
ORIGIN,JASCO
OWNER,
DATE,24/04/24
TIME,11:36:28
SPECTROMETER/DATA SYSTEM,
LOCALE,1033
RESOLUTION,
DELTAX,0.964233
XUNITS,1/CM
YUNITS,TRANSMITTANCE
FIRSTX,  649.8934
LASTX, 4000.6047
NPOINTS,    3476
FIRSTY,   100.69552
MAXY,   101.49345
MINY,    49.35100
XYDATA
649.8934,100.696
650.8576,100.523
651.8218,100.392
652.7861,100.303
653.7503,100.23
654.7145,100.147
655.6788,100.027
656.6430,99.8521
657.6072,99.6254
658.5715,99.3776
659.5357,99.1657
660.4999,99.0441
661.4642,99.0222
662.4284,99.0429
663.3926,99.0029
664.3569,98.7841
665.3211,98.2708
666.2853,97.3822
667.2496,96.2036
668.2138,95.1693
669.1780,94.8107
670.1423,95.1085
671.1065,95.6225
672.0707,96.0336
673.0350,96.2455
673.9992,96.2802
674.9634,96.2089
675.9277,96.1195
676.8919,96.0861
677.8561,96.1447
678.8204,96.2939
679.7846,96.515
680.7488,96.7869
681.7131,97.0903
682.6773,97.4084
683.6415,97.731
684.6058,98.0557
685.5700,98.3824
686.5342,98.7002
687.4985,98.9788
688.4627,99.1739
689.4269,99.243
690.3912,99.1684
691.3554,98.9865
692.3196,98.8147
693.2839,98.821
694.2481,99.0982
695.2123,99.5729
696.1766,100.087
697.1408,100.514
698.1050,100.799
699.0693,100.94
700.0335,100.975
700.9977,100.955
701.9620,100.923
702.9262,100.906
703.8904,100.91
704.8547,100.932
705.8189,100.966
706.7831,101.001
707.7474,101.026
708.7116,101.028
709.6758,101
710.6401,100.944
711.6043,100.868
712.5685,100.779
713.5328,100.678
714.4970,100.553
715.4612,100.702
716.4255,100.459
717.3897,100.181
718.3539,99.9107
719.3182,99.6987
720.2824,99.5836
721.2466,99.567
722.2109,99.6132
723.1751,99.6719
724.1393,99.7036
725.1036,99.6936
726.0678,99.6752
727.0320,99.6693
727.9963,99.6664
728.9605,99.6803
729.9247,99.7189
730.8890,99.785
731.8532,99.8755
732.8174,99.98
733.7817,100.081
734.7459,100.157
735.7101,100.193
736.6744,100.186
737.6386,100.146
738.6028,100.092
739.5671,100.043
740.5313,100.012
741.4955,100.001
742.4598,100.001
743.4240,99.9966
744.3882,99.9761
745.3525,99.9323
746.3167,99.8663
747.2809,99.7857
748.2452,99.7002
749.2094,99.6175
750.1736,99.5398
751.1379,99.4642
752.1021,99.3844
753.0663,99.2949
754.0306,99.1936
754.9948,99.0829
755.9590,98.9694
756.9233,98.8624
757.8875,98.7729
758.8517,98.7117
759.8160,98.6858
760.7802,98.6948
761.7444,98.7282
762.7087,98.7675
763.6729,98.7934
764.6371,98.7943
765.6014,98.7729
766.5656,98.7428
767.5298,98.7201
768.4941,98.7123
769.4583,98.7136
770.4225,98.7089
771.3868,98.6835
772.3510,98.6318
773.3152,98.5592
774.2795,98.4767
775.2437,98.3925
776.2079,98.307
777.1722,98.2145
778.1364,98.1088
779.1006,97.9894
780.0649,97.8625
781.0291,97.7384
781.9933,97.6266
782.9576,97.5316
783.9218,97.4526
784.8860,97.3844
785.8503,97.3197
786.8145,97.2511
787.7787,97.1724
788.7430,97.0802
789.7072,96.9759
790.6714,96.8655
791.6357,96.7579
792.5999,96.6604
793.5641,96.5738
794.5284,96.4916
795.4926,96.4019
796.4568,96.2935
797.4211,96.1614
798.3853,96.0085
799.3495,95.8434
800.3138,95.6752
801.2780,95.5088
802.2422,95.3437
803.2065,95.1757
804.1707,94.9993
805.1349,94.8105
806.0992,94.6067
807.0634,94.3865
808.0276,94.1497
808.9919,93.8976
809.9561,93.6346
810.9203,93.3683
811.8846,93.1097
812.8488,92.8703
813.8130,92.6599
814.7773,92.4835
815.7415,92.3396
816.7057,92.2213
817.6700,92.1187
818.6342,92.0231
819.5984,91.9305
820.5627,91.8429
821.5269,91.7669
822.4911,91.7103
823.4554,91.678
824.4196,91.6689
825.3839,91.6752
826.3481,91.6841
827.3123,91.6808
828.2766,91.6515
829.2408,91.5857
830.2050,91.478
831.1693,91.3263
832.1335,91.1312
833.0977,90.8934
834.0620,90.6131
835.0262,90.2913
835.9904,89.9315
836.9547,89.5411
837.9189,89.1317
838.8831,88.7161
839.8474,88.3059
840.8116,87.9081
841.7758,87.5245
842.7401,87.154
843.7043,86.7956
844.6685,86.4517
845.6328,86.1301
846.5970,85.8428
847.5612,85.6033
848.5255,85.4221
849.4897,85.3029
850.4539,85.2411
851.4182,85.2244
852.3824,85.2369
853.3466,85.2632
854.3109,85.2922
855.2751,85.3191
856.2393,85.3448
857.2036,85.3739
858.1678,85.4129
859.1320,85.4683
860.0963,85.5443
861.0605,85.643
862.0247,85.7643
862.9890,85.9074
863.9532,86.0733
864.9174,86.2648
865.8817,86.4866
866.8459,86.7416
867.8101,87.0294
868.7744,87.3453
869.7386,87.682
870.7028,88.032
871.6671,88.3878
872.6313,88.7411
873.5955,89.0801
874.5598,89.3898
875.5240,89.6559
876.4882,89.8704
877.4525,90.0361
878.4167,90.1662
879.3809,90.2782
880.3452,90.3866
881.3094,90.4971
882.2736,90.6066
883.2379,90.7063
884.2021,90.7878
885.1663,90.8465
886.1306,90.882
887.0948,90.8971
888.0590,90.8952
889.0233,90.879
889.9875,90.8504
890.9517,90.8102
891.9160,90.7592
892.8802,90.6984
893.8444,90.6283
894.8087,90.5483
895.7729,90.4556
896.7371,90.3446
897.7014,90.2085
898.6656,90.0424
899.6298,89.8465
900.5941,89.6271
901.5583,89.3957
902.5225,89.1649
903.4868,88.9448
904.4510,88.7406
905.4152,88.5517
906.3795,88.3739
907.3437,88.2014
908.3079,88.0294
909.2722,87.8561
910.2364,87.6835
911.2006,87.5174
912.1649,87.3661
913.1291,87.2377
914.0933,87.139
915.0576,87.0734
916.0218,87.0405
916.9860,87.0374
917.9503,87.0601
918.9145,87.1054
919.8787,87.1736
920.8430,87.2689
921.8072,87.399
922.7714,87.572
923.7357,87.7934
924.6999,88.0637
925.6641,88.3794
926.6284,88.7355
927.5926,89.13
928.5568,89.5667
929.5211,90.0549
930.4853,90.6079
931.4495,91.2384
932.4138,91.9547
933.3780,92.7567
934.3422,93.6335
935.3065,94.5625
936.2707,95.5109
937.2349,96.4397
938.1992,97.3096
939.1634,98.0877
940.1276,98.7527
941.0919,99.2969
942.0561,99.7244
943.0203,100.046
943.9846,100.274
944.9488,100.443
945.9130,100.597
946.8773,100.677
947.8415,100.687
948.8057,100.638
949.7700,100.545
950.7342,100.421
951.6984,100.28
952.6627,100.126
953.6269,99.9592
954.5911,99.7691
955.5554,99.544
956.5196,99.2723
957.4838,98.9463
958.4481,98.5642
959.4123,98.1288
960.3765,97.6462
961.3408,97.1232
962.3050,96.5662
963.2692,95.9818
964.2335,95.3777
965.1977,94.763
966.1619,94.1478
967.1262,93.5415
968.0904,92.9515
969.0546,92.3827
970.0189,91.8393
970.9831,91.3258
971.9473,90.848
972.9116,90.4114
973.8758,90.0188
974.8400,89.6684
975.8043,89.3523
976.7685,89.0571
977.7327,88.7663
978.6970,88.4626
979.6612,88.1313
980.6254,87.7615
981.5897,87.3472
982.5539,86.8869
983.5181,86.3825
984.4824,85.8391
985.4466,85.2661
986.4108,84.6775
987.3751,84.0932
988.3393,83.537
989.3035,83.0339
990.2678,82.6052
991.2320,82.2653
992.1962,82.0188
993.1605,81.8611
994.1247,81.7806
995.0889,81.7608
996.0532,81.7837
997.0174,81.8311
997.9816,81.8859
998.9459,81.9327
999.9101,81.9574
1000.8743,81.9468
1001.8386,81.8869
1002.8028,81.7605
1003.7670,81.5465
1004.7313,81.2217
1005.6955,80.7655
1006.6597,80.166
1007.6240,79.4232
1008.5882,78.548
1009.5524,77.5557
1010.5167,76.4597
1011.4809,75.2681
1012.4451,73.9849
1013.4094,72.6156
1014.3736,71.1708
1015.3378,69.6682
1016.3021,68.1302
1017.2663,66.5813
1018.2305,65.0438
1019.1948,63.5353
1020.1590,62.0655
1021.1232,60.6344
1022.0875,59.2355
1023.0517,57.8634
1024.0160,56.5236
1024.9802,55.2394
1025.9445,54.0478
1026.9087,52.9873
1027.8729,52.0826
1028.8372,51.3363
1029.8014,50.7316
1030.7656,50.2453
1031.7299,49.8613
1032.6941,49.5774
1033.6583,49.4031
1034.6226,49.351
1035.5868,49.4281
1036.5510,49.6306
1037.5153,49.9438
1038.4795,50.3446
1039.4437,50.8072
1040.4080,51.3079
1041.3722,51.8312
1042.3364,52.3726
1043.3007,52.9377
1044.2649,53.5376
1045.2291,54.1811
1046.1934,54.8697
1047.1576,55.5976
1048.1218,56.3562
1049.0861,57.1405
1050.0503,57.9509
1051.0145,58.7905
1051.9788,59.6589
1052.9430,60.5487
1053.9072,61.4485
1054.8715,62.3518
1055.8357,63.2649
1056.7999,64.2057
1057.7642,65.1894
1058.7284,66.2092
1059.6926,67.2253
1060.6569,68.1716
1061.6211,68.9842
1062.5853,69.6339
1063.5496,70.1447
1064.5138,70.5838
1065.4780,71.0273
1066.4423,71.5192
1067.4065,72.0502
1068.3707,72.5647
1069.3350,72.9927
1070.2992,73.2843
1071.2634,73.4282
1072.2277,73.4473
1073.1919,73.3792
1074.1561,73.2562
1075.1204,73.0959
1076.0846,72.9042
1077.0488,72.6836
1078.0131,72.4397
1078.9773,72.1816
1079.9415,71.9186
1080.9058,71.6563
1081.8700,71.3961
1082.8342,71.1367
1083.7985,70.8783
1084.7627,70.6252
1085.7269,70.3876
1086.6912,70.18
1087.6554,70.0164
1088.6196,69.9044
1089.5839,69.8403
1090.5481,69.8079
1091.5123,69.7827
1092.4766,69.7404
1093.4408,69.664
1094.4050,69.5473
1095.3693,69.3938
1096.3335,69.2112
1097.2977,69.0068
1098.2620,68.7848
1099.2262,68.5471
1100.1904,68.2946
1101.1547,68.0292
1102.1189,67.7541
1103.0831,67.4737
1104.0474,67.1946
1105.0116,66.9262
1105.9758,66.6827
1106.9401,66.4829
1107.9043,66.3494
1108.8685,66.3056
1109.8328,66.3732
1110.7970,66.5708
1111.7612,66.9124
1112.7255,67.408
1113.6897,68.063
1114.6539,68.8781
1115.6182,69.8487
1116.5824,70.9656
1117.5466,72.2157
1118.5109,73.5842
1119.4751,75.0553
1120.4393,76.6129
1121.4036,78.2388
1122.3678,79.9122
1123.3320,81.6089
1124.2963,83.3038
1125.2605,84.9733
1126.2247,86.5984
1127.1890,88.1652
1128.1532,89.6633
1129.1174,91.0835
1130.0817,92.415
1131.0459,93.646
1132.0101,94.7653
1132.9744,95.7643
1133.9386,96.6381
1134.9028,97.3851
1135.8671,98.0062
1136.8313,98.5041
1137.7955,98.8841
1138.7598,99.1547
1139.7240,99.327
1140.6882,99.4132
1141.6525,99.4242
1142.6167,99.3692
1143.5809,99.2565
1144.5452,99.0965
1145.5094,98.9036
1146.4736,98.6959
1147.4379,98.4924
1148.4021,98.2957
1149.3663,98.0675
1150.3306,97.8761
1151.2948,97.724
1152.2590,97.6125
1153.2233,97.5411
1154.1875,97.5072
1155.1517,97.5037
1156.1160,97.5193
1157.0802,97.5392
1158.0444,97.5471
1159.0087,97.5266
1159.9729,97.4628
1160.9371,97.3433
1161.9014,97.16
1162.8656,96.9106
1163.8298,96.6
1164.7941,96.2384
1165.7583,95.8392
1166.7225,95.4144
1167.6868,94.9715
1168.6510,94.5131
1169.6152,94.0375
1170.5795,93.5415
1171.5437,93.0221
1172.5079,92.4778
1173.4722,91.9087
1174.4364,91.316
1175.4006,90.7022
1176.3649,90.0708
1177.3291,89.4268
1178.2933,88.7758
1179.2576,88.1232
1180.2218,87.4725
1181.1860,86.8259
1182.1503,86.1847
1183.1145,85.5513
1184.0787,84.9309
1185.0430,84.3309
1186.0072,83.7586
1186.9714,83.219
1187.9357,82.7125
1188.8999,82.2355
1189.8641,81.7819
1190.8284,81.3453
1191.7926,80.9209
1192.7568,80.506
1193.7211,80.0998
1194.6853,79.7027
1195.6495,79.3154
1196.6138,78.9377
1197.5780,78.5679
1198.5422,78.2027
1199.5065,77.8953
1200.4707,77.5232
1201.4349,77.1505
1202.3992,76.7813
1203.3634,76.4214
1204.3276,76.0769
1205.2919,75.7533
1206.2561,75.4547
1207.2203,75.1842
1208.1846,74.9443
1209.1488,74.7369
1210.1130,74.5639
1211.0773,74.4265
1212.0415,74.326
1213.0057,74.2633
1213.9700,74.2394
1214.9342,74.2554
1215.8984,74.3116
1216.8627,74.4074
1217.8269,74.5401
1218.7911,74.7045
1219.7554,74.8937
1220.7196,75.1005
1221.6838,75.3191
1222.6481,75.5451
1223.6123,75.775
1224.5765,76.0042
1225.5408,76.2267
1226.5050,76.4347
1227.4692,76.6194
1228.4335,76.773
1229.3977,76.8899
1230.3619,76.9704
1231.3262,77.0227
1232.2904,77.0641
1233.2546,77.1172
1234.2189,77.2032
1235.1831,77.3339
1236.1473,77.5081
1237.1116,77.7148
1238.0758,77.9421
1239.0400,78.1865
1240.0043,78.4544
1240.9685,78.7558
1241.9327,79.092
1242.8970,79.4476
1243.8612,79.7934
1244.8254,80.097
1245.7897,80.3382
1246.7539,80.5157
1247.7181,80.6439
1248.6824,80.7432
1249.6466,80.8292
1250.6108,80.9077
1251.5751,80.9767
1252.5393,81.0299
1253.5035,81.061
1254.4678,81.0644
1255.4320,81.0362
1256.3962,80.9744
1257.3605,80.881
1258.3247,80.7622
1259.2889,80.6278
1260.2532,80.4872
1261.2174,80.3456
1262.1816,80.2031
1263.1459,80.0563
1264.1101,79.9023
1265.0743,79.7419
1266.0386,79.5803
1267.0028,79.4263
1267.9670,79.2908
1268.9313,79.185
1269.8955,79.1193
1270.8597,79.1018
1271.8240,79.1363
1272.7882,79.2216
1273.7524,79.3516
1274.7167,79.5179
1275.6809,79.7124
1276.6451,79.9291
1277.6094,80.165
1278.5736,80.4186
1279.5378,80.6885
1280.5021,80.9719
1281.4663,81.2636
1282.4305,81.5569
1283.3948,81.8453
1284.3590,82.1237
1285.3232,82.3904
1286.2875,82.6466
1287.2517,82.895
1288.2159,83.1379
1289.1802,83.375
1290.1444,83.6036
1291.1086,83.8196
1292.0729,84.0197
1293.0371,84.2031
1294.0013,84.3713
1294.9656,84.5273
1295.9298,84.6735
1296.8940,84.8108
1297.8583,84.9381
1298.8225,85.0533
1299.7867,85.1542
1300.7510,85.2391
1301.7152,85.3058
1302.6794,85.3526
1303.6437,85.3785
1304.6079,85.3825
1305.5721,85.365
1306.5364,85.3271
1307.5006,85.2701
1308.4648,85.1956
1309.4291,85.1052
1310.3933,85.0011
1311.3575,84.8869
1312.3218,84.767
1313.2860,84.6447
1314.2502,84.5213
1315.2145,84.3967
1316.1787,84.2717
1317.1429,84.1503
1318.1072,84.0393
1319.0714,83.9446
1320.0356,83.8667
1320.9999,83.7998
1321.9641,83.7356
1322.9283,83.6692
1323.8926,83.6021
1324.8568,83.5413
1325.8210,83.4961
1326.7853,83.4748
1327.7495,83.483
1328.7137,83.525
1329.6780,83.6041
1330.6422,83.7218
1331.6064,83.8732
1332.5707,84.0456
1333.5349,84.2201
1334.4991,84.3797
1335.4634,84.519
1336.4276,84.6511
1337.3918,84.8088
1338.3561,85.0321
1339.3203,85.3374
1340.2845,85.6948
1341.2488,86.0451
1342.2130,86.3401
1343.1772,86.5642
1344.1415,86.7255
1345.1057,86.8405
1346.0699,86.9246
1347.0342,86.9899
1347.9984,87.0432
1348.9626,87.0865
1349.9269,87.1164
1350.8911,87.1276
1351.8553,87.1174
1352.8196,87.0888
1353.7838,87.0499
1354.7480,87.0092
1355.7123,86.9695
1356.6765,86.9259
1357.6407,86.8696
1358.6050,86.7936
1359.5692,86.6983
1360.5334,86.5965
1361.4977,86.5139
1362.4619,86.4717
1363.4261,86.4634
1364.3904,86.4583
1365.3546,86.4319
1366.3188,86.3802
1367.2831,86.3121
1368.2473,86.2373
1369.2115,86.1595
1370.1758,86.0768
1371.1400,85.9862
1372.1042,85.8918
1373.0685,85.8092
1374.0327,85.7609
1374.9969,85.758
1375.9612,85.7874
1376.9254,85.8262
1377.8896,85.8625
1378.8539,85.8991
1379.8181,85.9439
1380.7823,85.9992
1381.7466,86.061
1382.7108,86.125
1383.6750,86.1937
1384.6393,86.276
1385.6035,86.3819
1386.5677,86.508
1387.5320,86.6205
1388.4962,86.663
1389.4604,86.5986
1390.4247,86.4356
1391.3889,86.2114
1392.3531,85.9697
1393.3174,85.7557
1394.2816,85.6154
1395.2458,85.5764
1396.2101,85.6209
1397.1743,85.688
1398.1385,85.7115
1399.1028,85.655
1400.0670,85.5182
1401.0313,85.3219
1401.9955,85.0927
1402.9597,84.8526
1403.9240,84.6184
1404.8882,84.4013
1405.8524,84.2045
1406.8167,84.0211
1407.7809,83.8412
1408.7451,83.6598
1409.7094,83.4756
1410.6736,83.2864
1411.6378,83.0878
1412.6021,82.8773
1413.5663,82.6584
1414.5305,82.4374
1415.4948,82.2137
1416.4590,81.9774
1417.4232,81.7242
1418.3875,81.4679
1419.3517,81.2154
1420.3159,80.9466
1421.2802,80.65
1422.2444,80.3494
1423.2086,80.0845
1424.1729,79.8826
1425.1371,79.7499
1426.1013,79.6798
1427.0656,79.6681
1428.0298,79.7218
1428.9940,79.8525
1429.9583,80.0574
1430.9225,80.3112
1431.8867,80.5857
1432.8510,80.874
1433.8152,81.1898
1434.7794,81.5444
1435.7437,81.9212
1436.7079,82.2505
1437.6721,82.4273
1438.6364,82.3952
1439.6006,82.1897
1440.5648,81.8857
1441.5291,81.5356
1442.4933,81.155
1443.4575,80.7369
1444.4218,80.2721
1445.3860,79.7601
1446.3502,79.2129
1447.3145,78.6548
1448.2787,78.1144
1449.2429,77.6137
1450.2072,77.1644
1451.1714,76.7773
1452.1356,76.4652
1453.0999,76.2285
1454.0641,76.0374
1455.0283,75.8429
1455.9926,75.6597
1456.9568,75.6293
1457.9210,75.7846
1458.8853,75.909
1459.8495,75.8879
1460.8137,75.8063
1461.7780,75.7908
1462.7422,75.9415
1463.7064,76.3335
1464.6707,76.9838
1465.6349,77.7913
1466.5991,78.5912
1467.5634,79.3039
1468.5276,79.9706
1469.4918,80.6789
1470.4561,81.5084
1471.4203,82.5233
1472.3845,83.7474
1473.3488,85.0684
1474.3130,86.2409
1475.2772,87.1036
1476.2415,87.6789
1477.2057,88.0631
1478.1699,88.3326
1479.1342,88.5311
1480.0984,88.6837
1481.0626,88.806
1482.0269,88.9019
1482.9911,88.9643
1483.9553,88.9813
1484.9196,88.9409
1485.8838,88.8302
1486.8480,88.6432
1487.8123,88.4159
1488.7765,88.2454
1489.7407,88.1957
1490.7050,88.1977
1491.6692,88.1482
1492.6334,88.0223
1493.5977,87.8414
1494.5619,87.6149
1495.5261,87.3342
1496.4904,87.013
1497.4546,86.7049
1498.4188,86.4413
1499.3831,86.1947
1500.3473,85.9496
1501.3115,85.7436
1502.2758,85.6207
1503.2400,85.5669
1504.2042,85.454
1505.1685,85.0217
1506.1327,84.0522
1507.0969,82.8124
1508.0612,81.868
1509.0254,81.2457
1509.9896,80.702
1510.9539,80.1553
1511.9181,79.6298
1512.8823,79.1776
1513.8466,78.872
1514.8108,78.8037
1515.7750,79.0415
1516.7393,79.5884
1517.7035,80.4053
1518.6677,81.4945
1519.6320,82.9277
1520.5962,84.7321
1521.5604,86.73
1522.5247,88.596
1523.4889,90.1339
1524.4531,91.4065
1525.4174,92.5855
1526.3816,93.7508
1527.3458,94.8389
1528.3101,95.747
1529.2743,96.4432
1530.2385,96.9805
1531.2028,97.4486
1532.1670,97.9215
1533.1312,98.4118
1534.0955,98.8606
1535.0597,99.2126
1536.0239,99.4814
1536.9882,99.6984
1537.9524,99.8169
1538.9166,99.7038
1539.8809,99.3468
1540.8451,99.1014
1541.8093,99.251
1542.7736,99.5749
1543.7378,99.8359
1544.7020,99.9928
1545.6663,100.062
1546.6305,100.057
1547.5947,99.9972
1548.5590,99.9077
1549.5232,99.8097
1550.4874,99.7053
1551.4517,99.5844
1552.4159,99.4481
1553.3801,99.3254
1554.3444,99.2596
1555.3086,99.2654
1556.2728,99.3308
1557.2371,99.3596
1558.2013,99.4339
1559.1655,99.6046
1560.1298,99.5553
1561.0940,99.137
1562.0582,98.5525
1563.0225,98.0163
1563.9867,97.6217
1564.9509,97.3657
1565.9152,97.1901
1566.8794,97.016
1567.8436,96.7807
1568.8079,96.4725
1569.7721,96.127
1570.7363,95.7875
1571.7006,95.4818
1572.6648,95.211
1573.6290,94.9301
1574.5933,94.5568
1575.5575,94.0482
1576.5217,93.4758
1577.4860,92.9415
1578.4502,92.4583
1579.4144,91.9954
1580.3787,91.5369
1581.3429,91.0739
1582.3071,90.5972
1583.2714,90.1074
1584.2356,89.617
1585.1998,89.1388
1586.1641,88.678
1587.1283,88.235
1588.0925,87.8129
1589.0568,87.4174
1590.0210,87.0521
1590.9852,86.7137
1591.9495,86.3963
1592.9137,86.098
1593.8779,85.824
1594.8422,85.5806
1595.8064,85.3661
1596.7706,85.169
1597.7349,84.9746
1598.6991,84.7755
1599.6633,84.5758
1600.6276,84.3896
1601.5918,84.2339
1602.5560,84.1178
1603.5203,84.0368
1604.4845,83.9764
1605.4487,83.924
1606.4130,83.881
1607.3772,83.8658
1608.3414,83.9036
1609.3057,84.0051
1610.2699,84.155
1611.2341,84.3312
1612.1984,84.5328
1613.1626,84.7851
1614.1268,85.1338
1615.0911,85.6367
1616.0553,86.3141
1617.0195,87.0502
1617.9838,87.6442
1618.9480,88.0221
1619.9122,88.2773
1620.8765,88.5411
1621.8407,88.8899
1622.8049,89.3223
1623.7692,89.7735
1624.7334,90.1652
1625.6976,90.4676
1626.6619,90.7065
1627.6261,90.9152
1628.5903,91.1004
1629.5546,91.2547
1630.5188,91.3882
1631.4830,91.5272
1632.4473,91.6772
1633.4115,91.7925
1634.3757,91.8121
1635.3400,91.7642
1636.3042,91.7532
1637.2684,91.7721
1638.2327,91.7373
1639.1969,91.6442
1640.1611,91.5475
1641.1254,91.4946
1642.0896,91.4994
1643.0538,91.531
1644.0181,91.5089
1644.9823,91.3412
1645.9465,91.0347
1646.9108,90.7426
1647.8750,90.6076
1648.8392,90.6578
1649.8035,90.8663
1650.7677,91.1573
1651.7319,91.3827
1652.6962,91.4309
1653.6604,91.3427
1654.6246,91.1042
1655.5889,90.6818
1656.5531,90.2076
1657.5173,89.8312
1658.4816,89.6041
1659.4458,89.4885
1660.4100,89.4083
1661.3743,89.3091
1662.3385,89.187
1663.3027,89.0603
1664.2670,88.939
1665.2312,88.828
1666.1954,88.7211
1667.1597,88.5893
1668.1239,88.4023
1669.0881,88.1797
1670.0524,87.9936
1671.0166,87.8901
1671.9808,87.8571
1672.9451,87.8644
1673.9093,87.877
1674.8735,87.8422
1675.8378,87.7018
1676.8020,87.4352
1677.7662,87.0921
1678.7305,86.7689
1679.6947,86.5469
1680.6589,86.4414
1681.6232,86.3887
1682.5874,86.2942
1683.5516,86.1275
1684.5159,85.9124
1685.4801,85.616
1686.4443,85.2138
1687.4086,84.7609
1688.3728,84.333
1689.3370,83.9781
1690.3013,83.7109
1691.2655,83.5174
1692.2297,83.3554
1693.1940,83.158
1694.1582,82.8539
1695.1224,82.4112
1696.0867,81.8887
1697.0509,81.4325
1698.0151,81.1701
1698.9794,81.0723
1699.9436,80.9622
1700.9078,80.6896
1701.8721,80.2574
1702.8363,79.7787
1703.8005,79.3745
1704.7648,79.115
1705.7290,79.007
1706.6932,79.0037
1707.6575,79.0359
1708.6217,79.0557
1709.5859,79.0587
1710.5502,79.0665
1711.5144,79.099
1712.4786,79.1603
1713.4429,79.2455
1714.4071,79.3701
1715.3713,79.6156
1716.3356,80.1123
1717.2998,80.8421
1718.2640,81.5309
1719.2283,81.9554
1720.1925,82.1527
1721.1567,82.2823
1722.1210,82.4699
1723.0852,82.7597
1724.0494,83.127
1725.0137,83.5122
1725.9779,83.8612
1726.9421,84.1533
1727.9064,84.4045
1728.8706,84.6515
1729.8348,84.9337
