TITLE,
DATA TYPE,INFRARED SPECTRUM
ORIGIN,JASCO
OWNER,
DATE,24/04/24
TIME,15:55:46
SPECTROMETER/DATA SYSTEM,
LOCALE,1033
RESOLUTION,
DELTAX,0.964233
XUNITS,1/CM
YUNITS,TRANSMITTANCE
FIRSTX,  649.8934
LASTX, 4000.6047
NPOINTS,    3476
FIRSTY,    96.17577
MAXY,   101.64724
MINY,    79.87964
XYDATA
649.8934,96.1758
650.8576,96.3288
651.8218,96.4701
652.7861,96.5812
653.7503,96.6516
654.7145,96.6886
655.6788,96.7155
656.6430,96.7594
657.6072,96.8357
658.5715,96.9403
659.5357,97.0558
660.4999,97.1647
661.4642,97.2648
662.4284,97.3715
663.3926,97.5098
664.3569,97.7042
665.3211,97.9719
666.2853,98.3075
667.2496,98.6426
668.2138,98.8235
669.1780,98.7545
670.1423,98.553
671.1065,98.3876
672.0707,98.3212
673.0350,98.3427
673.9992,98.4176
674.9634,98.5075
675.9277,98.5803
676.8919,98.6214
677.8561,98.6364
678.8204,98.6406
679.7846,98.6457
680.7488,98.6552
681.7131,98.67
682.6773,98.6956
683.6415,98.742
684.6058,98.8184
685.5700,98.924
686.5342,99.0438
687.4985,99.1531
688.4627,99.2273
689.4269,99.2546
690.3912,99.2417
691.3554,99.2083
692.3196,99.1749
693.2839,99.1512
694.2481,99.1362
695.2123,99.124
696.1766,99.1078
697.1408,99.0841
698.1050,99.0578
699.0693,99.0411
700.0335,99.0465
700.9977,99.0793
701.9620,99.1346
702.9262,99.2004
703.8904,99.2641
704.8547,99.3188
705.8189,99.364
706.7831,99.4033
707.7474,99.4402
708.7116,99.4762
709.6758,99.512
710.6401,99.549
711.6043,99.589
712.5685,99.6316
713.5328,99.6721
714.4970,99.702
715.4612,99.6975
716.4255,99.6924
717.3897,99.6745
718.3539,99.6541
719.3182,99.639
720.2824,99.6295
721.2466,99.618
722.2109,99.5945
723.1751,99.553
724.1393,99.4953
725.1036,99.4288
726.0678,99.3639
727.0320,99.3101
727.9963,99.2742
728.9605,99.2592
729.9247,99.2642
730.8890,99.2842
731.8532,99.3114
732.8174,99.3359
733.7817,99.3489
734.7459,99.3459
735.7101,99.3294
736.6744,99.3083
737.6386,99.2939
738.6028,99.2938
739.5671,99.3075
740.5313,99.3253
741.4955,99.3336
742.4598,99.322
743.4240,99.2892
744.3882,99.2433
745.3525,99.1966
746.3167,99.1588
747.2809,99.1332
748.2452,99.1178
749.2094,99.1094
750.1736,99.1075
751.1379,99.1134
752.1021,99.1266
753.0663,99.1415
754.0306,99.1484
754.9948,99.1374
755.9590,99.1048
756.9233,99.0547
757.8875,98.9973
758.8517,98.9431
759.8160,98.8982
760.7802,98.8631
761.7444,98.8343
762.7087,98.8085
763.6729,98.7843
764.6371,98.7628
765.6014,98.7459
766.5656,98.7348
767.5298,98.73
768.4941,98.7312
769.4583,98.7377
770.4225,98.7481
771.3868,98.759
772.3510,98.7658
773.3152,98.7635
774.2795,98.7494
775.2437,98.7245
776.2079,98.6936
777.1722,98.6629
778.1364,98.6372
779.1006,98.6179
780.0649,98.6035
781.0291,98.592
781.9933,98.5823
782.9576,98.575
783.9218,98.5708
784.8860,98.5681
785.8503,98.5625
786.8145,98.5479
787.7787,98.5197
788.7430,98.4772
789.7072,98.4247
790.6714,98.3693
791.6357,98.3172
792.5999,98.2703
793.5641,98.2259
794.5284,98.178
795.4926,98.1216
796.4568,98.0556
797.4211,97.9828
798.3853,97.9073
799.3495,97.8305
800.3138,97.7493
801.2780,97.6581
802.2422,97.5534
803.2065,97.438
804.1707,97.3222
805.1349,97.2194
806.0992,97.1398
807.0634,97.0852
808.0276,97.0478
808.9919,97.0149
809.9561,96.9752
810.9203,96.9232
811.8846,96.8609
812.8488,96.7939
813.8130,96.7273
814.7773,96.6623
815.7415,96.5963
816.7057,96.5252
817.6700,96.4478
818.6342,96.3677
819.5984,96.2932
820.5627,96.2337
821.5269,96.1955
822.4911,96.1784
823.4554,96.1748
824.4196,96.173
825.3839,96.1618
826.3481,96.1353
827.3123,96.0955
828.2766,96.0508
829.2408,96.012
830.2050,95.987
831.1693,95.979
832.1335,95.987
833.0977,96.0091
834.0620,96.0459
835.0262,96.1
835.9904,96.1734
836.9547,96.2646
837.9189,96.3667
838.8831,96.4698
839.8474,96.5655
840.8116,96.6505
841.7758,96.7271
842.7401,96.8009
843.7043,96.8768
844.6685,96.9559
845.6328,97.0352
846.5970,97.1097
847.5612,97.1748
848.5255,97.2292
849.4897,97.2758
850.4539,97.3208
851.4182,97.3712
852.3824,97.4315
853.3466,97.5021
854.3109,97.5799
855.2751,97.6608
856.2393,97.7436
857.2036,97.8305
858.1678,97.9258
859.1320,98.033
860.0963,98.1518
861.0605,98.2782
862.0247,98.407
862.9890,98.5334
863.9532,98.6551
864.9174,98.7714
865.8817,98.8823
866.8459,98.9885
867.8101,99.0901
868.7744,99.1861
869.7386,99.2732
870.7028,99.346
871.6671,99.3988
872.6313,99.4288
873.5955,99.4384
874.5598,99.4346
875.5240,99.4252
876.4882,99.4148
877.4525,99.3961
878.4167,99.3713
879.3809,99.3451
880.3452,99.3224
881.3094,99.3104
882.2736,99.3143
883.2379,99.3341
884.2021,99.3644
885.1663,99.3981
886.1306,99.4301
887.0948,99.4596
888.0590,99.4879
889.0233,99.5152
889.9875,99.5384
890.9517,99.5515
891.9160,99.5479
892.8802,99.5237
893.8444,99.478
894.8087,99.4119
895.7729,99.3266
896.7371,99.2225
897.7014,99.1006
898.6656,98.9629
899.6298,98.8133
900.5941,98.6553
901.5583,98.4907
902.5225,98.3186
903.4868,98.1371
904.4510,97.9466
905.4152,97.7519
906.3795,97.5619
907.3437,97.3868
908.3079,97.2346
909.2722,97.1097
910.2364,97.0142
911.2006,96.9505
912.1649,96.9232
913.1291,96.9378
914.0933,96.9977
915.0576,97.1014
916.0218,97.2426
916.9860,97.4128
917.9503,97.6051
918.9145,97.816
919.8787,98.0438
920.8430,98.2846
921.8072,98.5304
922.7714,98.7693
923.7357,98.9893
924.6999,99.1824
925.6641,99.3464
926.6284,99.4839
927.5926,99.5996
928.5568,99.6978
929.5211,99.7811
930.4853,99.8502
931.4495,99.9049
932.4138,99.9434
933.3780,99.963
934.3422,99.9607
935.3065,99.9359
936.2707,99.8912
937.2349,99.8561
938.1992,99.8629
939.1634,99.8695
940.1276,99.8793
941.0919,99.8933
942.0561,99.9114
943.0203,99.9329
943.9846,99.9559
944.9488,99.9759
945.9130,99.9859
946.8773,99.9792
947.8415,99.9522
948.8057,99.9072
949.7700,99.8517
950.7342,99.7942
951.6984,99.7402
952.6627,99.6893
953.6269,99.6367
954.5911,99.5768
955.5554,99.5074
956.5196,99.4307
957.4838,99.3519
958.4481,99.276
959.4123,99.2048
960.3765,99.1368
961.3408,99.0685
962.3050,98.997
963.2692,98.9231
964.2335,98.8508
965.1977,98.7864
966.1619,98.7357
967.1262,98.701
968.0904,98.6802
969.0546,98.6675
970.0189,98.6556
970.9831,98.6391
971.9473,98.6161
972.9116,98.5878
973.8758,98.5563
974.8400,98.5219
975.8043,98.4826
976.7685,98.4346
977.7327,98.3751
978.6970,98.304
979.6612,98.223
980.6254,98.1347
981.5897,98.0407
982.5539,97.9413
983.5181,97.8357
984.4824,97.7238
985.4466,97.6057
986.4108,97.4818
987.3751,97.3521
988.3393,97.2158
989.3035,97.0726
990.2678,96.9219
991.2320,96.7632
992.1962,96.5949
993.1605,96.4146
994.1247,96.2195
995.0889,96.0083
996.0532,95.7809
997.0174,95.5387
997.9816,95.2822
998.9459,95.011
999.9101,94.7228
1000.8743,94.4157
1001.8386,94.0886
1002.8028,93.7424
1003.7670,93.3793
1004.7313,93.0023
1005.6955,92.6143
1006.6597,92.2173
1007.6240,91.8127
1008.5882,91.4015
1009.5524,90.9851
1010.5167,90.5667
1011.4809,90.1527
1012.4451,89.7518
1013.4094,89.3727
1014.3736,89.0208
1015.3378,88.696
1016.3021,88.3934
1017.2663,88.1068
1018.2305,87.8322
1019.1948,87.57
1020.1590,87.3245
1021.1232,87.0999
1022.0875,86.898
1023.0517,86.717
1024.0160,86.5528
1024.9802,86.4022
1025.9445,86.265
1026.9087,86.1453
1027.8729,86.0512
1028.8372,85.9941
1029.8014,85.987
1030.7656,86.0427
1031.7299,86.171
1032.6941,86.3763
1033.6583,86.6553
1034.6226,86.9975
1035.5868,87.3875
1036.5510,87.8091
1037.5153,88.2486
1038.4795,88.6958
1039.4437,89.1421
1040.4080,89.5785
1041.3722,89.9948
1042.3364,90.3805
1043.3007,90.7272
1044.2649,91.0307
1045.2291,91.2916
1046.1934,91.5144
1047.1576,91.7056
1048.1218,91.8719
1049.0861,92.0193
1050.0503,92.1519
1051.0145,92.273
1051.9788,92.3847
1052.9430,92.4891
1053.9072,92.5883
1054.8715,92.6842
1055.8357,92.7779
1056.7999,92.8683
1057.7642,92.9535
1058.7284,93.0312
1059.6926,93.101
1060.6569,93.1643
1061.6211,93.2222
1062.5853,93.2726
1063.5496,93.3094
1064.5138,93.323
1065.4780,93.3043
1066.4423,93.2486
1067.4065,93.1557
1068.3707,93.0288
1069.3350,92.8703
1070.2992,92.681
1071.2634,92.4614
1072.2277,92.214
1073.1919,91.9449
1074.1561,91.6619
1075.1204,91.3724
1076.0846,91.0802
1077.0488,90.7853
1078.0131,90.4848
1078.9773,90.1759
1079.9415,89.8571
1080.9058,89.5301
1081.8700,89.1992
1082.8342,88.8693
1083.7985,88.5443
1084.7627,88.2249
1085.7269,87.9087
1086.6912,87.593
1087.6554,87.278
1088.6196,86.9684
1089.5839,86.673
1090.5481,86.4006
1091.5123,86.156
1092.4766,85.9386
1093.4408,85.7432
1094.4050,85.5628
1095.3693,85.3911
1096.3335,85.2215
1097.2977,85.0456
1098.2620,84.851
1099.2262,84.623
1100.1904,84.3481
1101.1547,84.0188
1102.1189,83.6371
1103.0831,83.2127
1104.0474,82.7594
1105.0116,82.2904
1105.9758,81.8167
1106.9401,81.35
1107.9043,80.9068
1108.8685,80.5105
1109.8328,80.1897
1110.7970,79.9726
1111.7612,79.8796
1112.7255,79.9208
1113.6897,80.0958
1114.6539,80.3977
1115.6182,80.8171
1116.5824,81.3435
1117.5466,81.965
1118.5109,82.6686
1119.4751,83.4411
1120.4393,84.271
1121.4036,85.1503
1122.3678,86.073
1123.3320,87.0328
1124.2963,88.0212
1125.2605,89.0275
1126.2247,90.0411
1127.1890,91.0546
1128.1532,92.0634
1129.1174,93.0639
1130.0817,94.05
1131.0459,95.0103
1132.0101,95.9281
1132.9744,96.7836
1133.9386,97.557
1134.9028,98.2325
1135.8671,98.8001
1136.8313,99.2574
1137.7955,99.6078
1138.7598,99.8358
1139.7240,99.8945
1140.6882,99.8713
1141.6525,99.7758
1142.6167,99.6206
1143.5809,99.4217
1144.5452,99.1975
1145.5094,98.9647
1146.4736,98.7347
1147.4379,98.5121
1148.4021,98.2971
1149.3663,98.0907
1150.3306,97.8988
1151.2948,97.7332
1152.2590,97.608
1153.2233,97.5341
1154.1875,97.5141
1155.1517,97.5414
1156.1160,97.6027
1157.0802,97.6828
1158.0444,97.7692
1159.0087,97.8541
1159.9729,97.9339
1160.9371,98.0072
1161.9014,98.0722
1162.8656,98.1253
1163.8298,98.1609
1164.7941,98.173
1165.7583,98.157
1166.7225,98.1112
1167.6868,98.0373
1168.6510,97.9391
1169.6152,97.8209
1170.5795,97.6848
1171.5437,97.5299
1172.5079,97.3526
1173.4722,97.1479
1174.4364,96.9119
1175.4006,96.6424
1176.3649,96.3399
1177.3291,96.0068
1178.2933,95.6476
1179.2576,95.2686
1180.2218,94.8771
1181.1860,94.4807
1182.1503,94.0854
1183.1145,93.695
1184.0787,93.3115
1185.0430,92.9355
1186.0072,92.5677
1186.9714,92.2085
1187.9357,91.8571
1188.8999,91.5113
1189.8641,91.1671
1190.8284,90.8206
1191.7926,90.4693
1192.7568,90.1121
1193.7211,89.7487
1194.6853,89.3785
1195.6495,88.9995
1196.6138,88.6092
1197.5780,88.2053
1198.5422,87.7873
1199.5065,87.3123
1200.4707,86.8769
1201.4349,86.4362
1202.3992,85.996
1203.3634,85.5641
1204.3276,85.1496
1205.2919,84.762
1206.2561,84.4092
1207.2203,84.0969
1208.1846,83.829
1209.1488,83.6086
1210.1130,83.4389
1211.0773,83.3232
1212.0415,83.2637
1213.0057,83.2617
1213.9700,83.3165
1214.9342,83.4269
1215.8984,83.5915
1216.8627,83.8073
1217.8269,84.0694
1218.7911,84.3705
1219.7554,84.7012
1220.7196,85.0518
1221.6838,85.4135
1222.6481,85.7784
1223.6123,86.1393
1224.5765,86.4883
1225.5408,86.8176
1226.5050,87.1208
1227.4692,87.3935
1228.4335,87.6342
1229.3977,87.8437
1230.3619,88.024
1231.3262,88.1784
1232.2904,88.3108
1233.2546,88.4267
1234.2189,88.5318
1235.1831,88.6317
1236.1473,88.7306
1237.1116,88.8308
1238.0758,88.9334
1239.0400,89.0391
1240.0043,89.1498
1240.9685,89.2683
1241.9327,89.398
1242.8970,89.5408
1243.8612,89.6962
1244.8254,89.8606
1245.7897,90.0281
1246.7539,90.1916
1247.7181,90.3439
1248.6824,90.4784
1249.6466,90.59
1250.6108,90.6751
1251.5751,90.7318
1252.5393,90.7598
1253.5035,90.76
1254.4678,90.7349
1255.4320,90.6869
1256.3962,90.6187
1257.3605,90.5327
1258.3247,90.4309
1259.2889,90.3157
1260.2532,90.1909
1261.2174,90.0609
1262.1816,89.9308
1263.1459,89.8052
1264.1101,89.6878
1265.0743,89.5822
1266.0386,89.4924
1267.0028,89.4241
1267.9670,89.3833
1268.9313,89.3758
1269.8955,89.4049
1270.8597,89.4703
1271.8240,89.5682
1272.7882,89.6928
1273.7524,89.8382
1274.7167,89.9999
1275.6809,90.1748
1276.6451,90.3603
1277.6094,90.5538
1278.5736,90.7521
1279.5378,90.9516
1280.5021,91.149
1281.4663,91.341
1282.4305,91.5244
1283.3948,91.6966
1284.3590,91.8557
1285.3232,92.0006
1286.2875,92.1311
1287.2517,92.2468
1288.2159,92.3474
1289.1802,92.4326
1290.1444,92.5029
1291.1086,92.5592
1292.0729,92.6033
1293.0371,92.636
1294.0013,92.6572
1294.9656,92.666
1295.9298,92.6607
1296.8940,92.64
1297.8583,92.6035
1298.8225,92.5523
1299.7867,92.4886
1300.7510,92.4161
1301.7152,92.3402
1302.6794,92.2663
1303.6437,92.1981
1304.6079,92.1372
1305.5721,92.0823
1306.5364,92.0304
1307.5006,91.9786
1308.4648,91.9255
1309.4291,91.8714
1310.3933,91.8176
1311.3575,91.7653
1312.3218,91.7147
1313.2860,91.6654
1314.2502,91.6167
1315.2145,91.569
1316.1787,91.5234
1317.1429,91.4814
1318.1072,91.4434
1319.0714,91.4088
1320.0356,91.3767
1320.9999,91.3467
1321.9641,91.3203
1322.9283,91.3006
1323.8926,91.293
1324.8568,91.3035
1325.8210,91.3387
1326.7853,91.4037
1327.7495,91.5021
1328.7137,91.6357
1329.6780,91.8045
1330.6422,92.0057
1331.6064,92.2326
1332.5707,92.4744
1333.5349,92.7206
1334.4991,92.9661
1335.4634,93.215
1336.4276,93.4804
1337.3918,93.7754
1338.3561,94.0991
1339.3203,94.4304
1340.2845,94.7399
1341.2488,95.0108
1342.2130,95.2457
1343.1772,95.457
1344.1415,95.6564
1345.1057,95.8497
1346.0699,96.0355
1347.0342,96.207
1347.9984,96.3571
1348.9626,96.4822
1349.9269,96.5831
1350.8911,96.6639
1351.8553,96.7304
1352.8196,96.7885
1353.7838,96.843
1354.7480,96.8946
1355.7123,96.9388
1356.6765,96.9682
1357.6407,96.9775
1358.6050,96.9684
1359.5692,96.9503
1360.5334,96.9346
1361.4977,96.9254
1362.4619,96.9161
1363.4261,96.8989
1364.3904,96.8734
1365.3546,96.8453
1366.3188,96.8203
1367.2831,96.8035
1368.2473,96.7987
1369.2115,96.8094
1370.1758,96.8409
1371.1400,96.9033
1372.1042,97.0098
1373.0685,97.1676
1374.0327,97.3664
1374.9969,97.5785
1375.9612,97.7779
1376.9254,97.9581
1377.8896,98.1302
1378.8539,98.3085
1379.8181,98.4978
1380.7823,98.6875
1381.7466,98.8582
1382.7108,98.9963
1383.6750,99.1055
1384.6393,99.2069
1385.6035,99.3263
1386.5677,99.4722
1387.5320,99.6245
1388.4962,99.7516
1389.4604,99.8344
1390.4247,99.8721
1391.3889,99.8782
1392.3531,99.8758
1393.3174,99.8892
1394.2816,99.93
1395.2458,99.9878
1396.2101,100.038
1397.1743,100.05
1398.1385,100.025
1399.1028,99.9726
1400.0670,99.8986
1401.0313,99.8077
1401.9955,99.6994
1402.9597,99.5694
1403.9240,99.4108
1404.8882,99.2169
1405.8524,98.9857
1406.8167,98.7219
1407.7809,98.4283
1408.7451,98.0988
1409.7094,97.7213
1410.6736,97.2897
1411.6378,96.8147
1412.6021,96.3204
1413.5663,95.826
1414.5305,95.3309
1415.4948,94.8161
1416.4590,94.257
1417.4232,93.6433
1418.3875,93.0069
1419.3517,92.4286
1420.3159,91.9799
1421.2802,91.6661
1422.2444,91.4473
1423.2086,91.2859
1424.1729,91.1672
1425.1371,91.0947
1426.1013,91.0815
1427.0656,91.146
1428.0298,91.3071
1428.9940,91.5678
1429.9583,91.8967
1430.9225,92.2329
1431.8867,92.5201
1432.8510,92.737
1433.8152,92.8985
1434.7794,93.0319
1435.7437,93.1397
1436.7079,93.1816
1437.6721,93.1146
1438.6364,92.9344
1439.6006,92.6547
1440.5648,92.2804
1441.5291,91.8152
1442.4933,91.2739
1443.4575,90.6827
1444.4218,90.066
1445.3860,89.436
1446.3502,88.7961
1447.3145,88.1598
1448.2787,87.5638
1449.2429,87.0549
1450.2072,86.6554
1451.1714,86.3479
1452.1356,86.0937
1453.0999,85.8641
1454.0641,85.6612
1455.0283,85.517
1455.9926,85.4507
1456.9568,85.4049
1457.9210,85.318
1458.8853,85.2359
1459.8495,85.2023
1460.8137,85.2061
1461.7780,85.2495
1462.7422,85.3892
1463.7064,85.716
1464.6707,86.2738
1465.6349,86.9846
1466.5991,87.7006
1467.5634,88.3281
1468.5276,88.8692
1469.4918,89.3965
1470.4561,90.0219
1471.4203,90.8463
1472.3845,91.8476
1473.3488,92.8131
1474.3130,93.5276
1475.2772,93.9811
1476.2415,94.2738
1477.2057,94.4743
1478.1699,94.6029
1479.1342,94.6587
1480.0984,94.638
1481.0626,94.5406
1482.0269,94.3715
1482.9911,94.1416
1483.9553,93.8657
1484.9196,93.5585
1485.8838,93.2303
1486.8480,92.879
1487.8123,92.4792
1488.7765,91.9997
1489.7407,91.4659
1490.7050,90.965
1491.6692,90.548
1492.6334,90.1932
1493.5977,89.8545
1494.5619,89.5013
1495.5261,89.1258
1496.4904,88.7345
1497.4546,88.3466
1498.4188,87.9945
1499.3831,87.7013
1500.3473,87.453
1501.3115,87.2119
1502.2758,86.9463
1503.2400,86.6484
1504.2042,86.3338
1505.1685,86.0117
1506.1327,85.6097
1507.0969,85.0015
1508.0612,84.3116
1509.0254,83.8033
1509.9896,83.4915
1510.9539,83.2712
1511.9181,83.0926
1512.8823,82.9886
1513.8466,83.0468
1514.8108,83.3543
1515.7750,83.9312
1516.7393,84.708
1517.7035,85.5987
1518.6677,86.6073
1519.6320,87.837
1520.5962,89.3541
1521.5604,91.0304
1522.5247,92.5943
1523.4889,93.8655
1524.4531,94.8639
1525.4174,95.7071
1526.3816,96.4709
1527.3458,97.1449
1528.3101,97.6823
1529.2743,98.0668
1530.2385,98.3382
1531.2028,98.5726
1532.1670,98.8318
1533.1312,99.1055
1534.0955,99.3151
1535.0597,99.394
1536.0239,99.3417
1536.9882,99.2176
1537.9524,99.1295
1538.9166,99.2192
1539.8809,99.5465
1540.8451,99.8949
1541.8093,99.9882
1542.7736,99.8948
1543.7378,99.7819
1544.7020,99.7209
1545.6663,99.6771
1546.6305,99.6349
1547.5947,99.5866
1548.5590,99.5307
1549.5232,99.4677
1550.4874,99.3975
1551.4517,99.3171
1552.4159,99.2206
1553.3801,99.1021
1554.3444,98.9632
1555.3086,98.8254
1556.2728,98.7412
1557.2371,98.7553
1558.2013,98.7759
1559.1655,98.6377
1560.1298,98.4349
1561.0940,98.3133
1562.0582,98.2492
1563.0225,98.1714
1563.9867,98.0444
1564.9509,97.8709
1565.9152,97.6729
1566.8794,97.4702
1567.8436,97.2616
1568.8079,97.0288
1569.7721,96.767
1570.7363,96.4982
1571.7006,96.24
1572.6648,95.985
1573.6290,95.7103
1574.5933,95.3896
1575.5575,95.0005
1576.5217,94.5547
1577.4860,94.1174
1578.4502,93.7386
1579.4144,93.3983
1580.3787,93.0448
1581.3429,92.6471
1582.3071,92.2091
1583.2714,91.7593
1584.2356,91.3275
1585.1998,90.9268
1586.1641,90.5528
1587.1283,90.1976
1588.0925,89.8604
1589.0568,89.548
1590.0210,89.2666
1590.9852,89.0162
1591.9495,88.792
1592.9137,88.589
1593.8779,88.4038
1594.8422,88.2343
1595.8064,88.079
1596.7706,87.9372
1597.7349,87.8106
1598.6991,87.702
1599.6633,87.6135
1600.6276,87.5456
1601.5918,87.4982
1602.5560,87.4727
1603.5203,87.4716
1604.4845,87.4965
1605.4487,87.5477
1606.4130,87.6258
1607.3772,87.7341
1608.3414,87.8746
1609.3057,88.0396
1610.2699,88.21
1611.2341,88.3642
1612.1984,88.4955
1613.1626,88.6276
1614.1268,88.8228
1615.0911,89.1573
1616.0553,89.6465
1617.0195,90.1872
1617.9838,90.6483
1618.9480,90.9922
1619.9122,91.2634
1620.8765,91.5279
1621.8407,91.8361
1622.8049,92.1936
1623.7692,92.5517
1624.7334,92.8518
1625.6976,93.0805
1626.6619,93.2678
1627.6261,93.4444
1628.5903,93.612
1629.5546,93.7469
1630.5188,93.8245
1631.4830,93.8413
1632.4473,93.8251
1633.4115,93.8356
1634.3757,93.9363
1635.3400,94.1216
1636.3042,94.2899
1637.2684,94.3727
1638.2327,94.3985
1639.1969,94.4019
1640.1611,94.3854
1641.1254,94.34
1642.0896,94.2632
1643.0538,94.1689
1644.0181,94.089
1644.9823,94.0568
1645.9465,94.0648
1646.9108,94.0526
1647.8750,93.9765
1648.8392,93.844
1649.8035,93.6801
1650.7677,93.5232
1651.7319,93.4305
1652.6962,93.4144
1653.6604,93.3894
1654.6246,93.3323
1655.5889,93.3038
1656.5531,93.2991
1657.5173,93.2779
1658.4816,93.2229
1659.4458,93.1479
1660.4100,93.0798
1661.3743,93.0342
1662.3385,93.0024
1663.3027,92.9664
1664.2670,92.9186
1665.2312,92.8615
1666.1954,92.8043
1667.1597,92.7646
1668.1239,92.7583
1669.0881,92.778
1670.0524,92.7887
1671.0166,92.7644
1671.9808,92.7098
1672.9451,92.6432
1673.9093,92.5828
1674.8735,92.5428
1675.8378,92.5297
1676.8020,92.538
1677.7662,92.5507
1678.7305,92.5467
1679.6947,92.5142
1680.6589,92.4638
1681.6232,92.4303
1682.5874,92.4459
1683.5516,92.4898
1684.5159,92.5051
1685.4801,92.4921
1686.4443,92.4854
1687.4086,92.4881
1688.3728,92.4815
1689.3370,92.4503
1690.3013,92.3895
1691.2655,92.3022
1692.2297,92.1977
1693.1940,92.0904
1694.1582,91.9977
1695.1224,91.9329
1696.0867,91.8951
1697.0509,91.8633
1698.0151,91.8104
1698.9794,91.7307
1699.9436,91.6522
1700.9078,91.6102
1701.8721,91.614
1702.8363,91.6444
1703.8005,91.6742
1704.7648,91.6845
1705.7290,91.6698
1706.6932,91.6375
1707.6575,91.6016
1708.6217,91.5738
1709.5859,91.556
1710.5502,91.5435
1711.5144,91.5315
1712.4786,91.5224
1713.4429,91.5305
1714.4071,91.5838
1715.3713,91.708
1716.3356,91.8858
1717.2998,92.0499
1718.2640,92.1649
1719.2283,92.26
1720.1925,92.3649
1721.1567,92.4838
1722.1210,92.61
1723.0852,92.7363
1724.0494,92.8581
1725.0137,92.9749
1725.9779,93.0907
1726.9421,93.2094
1727.9064,93.3299
1728.8706,93.4454
1729.8348,93.5547
1730.7991,93.6754
