TITLE,
DATA TYPE,INFRARED SPECTRUM
ORIGIN,JASCO
OWNER,
DATE,24/04/24
TIME,15:46:55
SPECTROMETER/DATA SYSTEM,
LOCALE,1033
RESOLUTION,
DELTAX,0.964233
XUNITS,1/CM
YUNITS,TRANSMITTANCE
FIRSTX,  649.8934
LASTX, 4000.6047
NPOINTS,    3476
FIRSTY,    98.84380
MAXY,   101.76616
MINY,    78.95740
XYDATA
649.8934,98.8438
650.8576,98.9207
651.8218,98.9749
652.7861,99.0111
653.7503,99.0318
654.7145,99.0421
655.6788,99.0479
656.6430,99.053
657.6072,99.0568
658.5715,99.0528
659.5357,99.0326
660.4999,98.9953
661.4642,98.9565
662.4284,98.9473
663.3926,99.0046
664.3569,99.1654
665.3211,99.4637
666.2853,99.9123
667.2496,100.436
668.2138,100.799
669.1780,100.782
670.1423,100.49
671.1065,100.182
672.0707,99.9906
673.0350,99.9311
673.9992,99.9705
674.9634,100.061
675.9277,100.158
676.8919,100.231
677.8561,100.279
678.8204,100.314
679.7846,100.352
680.7488,100.394
681.7131,100.437
682.6773,100.473
683.6415,100.499
684.6058,100.514
685.5700,100.52
686.5342,100.517
687.4985,100.506
688.4627,100.482
689.4269,100.445
690.3912,100.396
691.3554,100.341
692.3196,100.288
693.2839,100.239
694.2481,100.195
695.2123,100.173
696.1766,100.156
697.1408,100.126
698.1050,100.081
699.0693,100.031
700.0335,99.9888
700.9977,99.9662
701.9620,99.9671
702.9262,99.9895
703.8904,100.027
704.8547,100.071
705.8189,100.113
706.7831,100.147
707.7474,100.168
708.7116,100.181
709.6758,100.195
710.6401,100.221
711.6043,100.262
712.5685,100.315
713.5328,100.369
714.4970,100.415
715.4612,100.437
716.4255,100.471
717.3897,100.507
718.3539,100.548
719.3182,100.585
720.2824,100.606
721.2466,100.6
722.2109,100.569
723.1751,100.524
724.1393,100.477
725.1036,100.437
726.0678,100.404
727.0320,100.375
727.9963,100.347
728.9605,100.319
729.9247,100.29
730.8890,100.266
731.8532,100.247
732.8174,100.233
733.7817,100.223
734.7459,100.21
735.7101,100.19
736.6744,100.16
737.6386,100.121
738.6028,100.078
739.5671,100.04
740.5313,100.01
741.4955,99.9925
742.4598,99.9832
743.4240,99.9762
744.3882,99.9636
745.3525,99.9371
746.3167,99.8904
747.2809,99.8218
748.2452,99.7362
749.2094,99.6453
750.1736,99.5639
751.1379,99.5037
752.1021,99.4673
753.0663,99.4466
754.0306,99.4262
754.9948,99.3904
755.9590,99.33
756.9233,99.2454
757.8875,99.1452
758.8517,99.0419
759.8160,98.948
760.7802,98.8724
761.7444,98.8191
762.7087,98.7875
763.6729,98.7736
764.6371,98.772
765.6014,98.7785
766.5656,98.7914
767.5298,98.8116
768.4941,98.8405
769.4583,98.8774
770.4225,98.9183
771.3868,98.9565
772.3510,98.9854
773.3152,99.0012
774.2795,99.0036
775.2437,98.9956
776.2079,98.9808
777.1722,98.9623
778.1364,98.9416
779.1006,98.9197
780.0649,98.8978
781.0291,98.8775
781.9933,98.8602
782.9576,98.8453
783.9218,98.8307
784.8860,98.8131
785.8503,98.7897
786.8145,98.7595
787.7787,98.7232
788.7430,98.6821
789.7072,98.6365
790.6714,98.5861
791.6357,98.5304
792.5999,98.4697
793.5641,98.4066
794.5284,98.3449
795.4926,98.2889
796.4568,98.2412
797.4211,98.2019
798.3853,98.1679
799.3495,98.1339
800.3138,98.0931
801.2780,98.0397
802.2422,97.9698
803.2065,97.884
804.1707,97.7877
805.1349,97.6907
806.0992,97.6043
807.0634,97.5374
808.0276,97.4925
808.9919,97.4645
809.9561,97.4434
810.9203,97.4193
811.8846,97.3876
812.8488,97.3508
813.8130,97.3151
814.7773,97.2851
815.7415,97.2597
816.7057,97.2317
817.6700,97.1936
818.6342,97.1428
819.5984,97.085
820.5627,97.0317
821.5269,96.9949
822.4911,96.9811
823.4554,96.9893
824.4196,97.0119
825.3839,97.0397
826.3481,97.0653
827.3123,97.0855
828.2766,97.1012
829.2408,97.1158
830.2050,97.1331
831.1693,97.155
832.1335,97.1805
833.0977,97.2056
834.0620,97.2245
835.0262,97.2316
835.9904,97.2244
836.9547,97.2045
837.9189,97.1775
838.8831,97.1512
839.8474,97.1325
840.8116,97.1252
841.7758,97.1283
842.7401,97.1382
843.7043,97.151
844.6685,97.1647
845.6328,97.1798
846.5970,97.1977
847.5612,97.2181
848.5255,97.2388
849.4897,97.2572
850.4539,97.2735
851.4182,97.2915
852.3824,97.3171
853.3466,97.3542
854.3109,97.4023
855.2751,97.4572
856.2393,97.5142
857.2036,97.5724
858.1678,97.6346
859.1320,97.7049
860.0963,97.7843
861.0605,97.8695
862.0247,97.954
862.9890,98.0322
863.9532,98.1025
864.9174,98.1671
865.8817,98.2296
866.8459,98.2918
867.8101,98.3525
868.7744,98.4077
869.7386,98.4529
870.7028,98.4854
871.6671,98.5049
872.6313,98.5142
873.5955,98.5173
874.5598,98.5184
875.5240,98.5206
876.4882,98.524
877.4525,98.5268
878.4167,98.5253
879.3809,98.5166
880.3452,98.5005
881.3094,98.4804
882.2736,98.463
883.2379,98.4557
884.2021,98.4637
885.1663,98.4878
886.1306,98.5246
887.0948,98.5672
888.0590,98.6079
889.0233,98.6394
889.9875,98.6551
890.9517,98.649
891.9160,98.6169
892.8802,98.5577
893.8444,98.4753
894.8087,98.3783
895.7729,98.2769
896.7371,98.1783
897.7014,98.0833
898.6656,97.9862
899.6298,97.8789
900.5941,97.7557
901.5583,97.6168
902.5225,97.4675
903.4868,97.3156
904.4510,97.1665
905.4152,97.023
906.3795,96.8852
907.3437,96.754
908.3079,96.6331
909.2722,96.5291
910.2364,96.4503
911.2006,96.405
912.1649,96.3997
913.1291,96.4378
914.0933,96.5194
915.0576,96.6411
916.0218,96.7971
916.9860,96.9813
917.9503,97.1884
918.9145,97.4151
919.8787,97.6585
920.8430,97.9143
921.8072,98.1752
922.7714,98.4312
923.7357,98.6726
924.6999,98.8921
925.6641,99.0861
926.6284,99.254
927.5926,99.3969
928.5568,99.5168
929.5211,99.616
930.4853,99.6979
931.4495,99.7652
932.4138,99.8191
933.3780,99.8576
934.3422,99.8765
935.3065,99.8883
936.2707,99.9087
937.2349,99.9106
938.1992,99.9009
939.1634,99.8869
940.1276,99.8733
941.0919,99.8628
942.0561,99.8567
943.0203,99.8558
943.9846,99.8597
944.9488,99.8653
945.9130,99.8673
946.8773,99.8595
947.8415,99.8381
948.8057,99.8038
949.7700,99.7622
950.7342,99.7207
951.6984,99.685
952.6627,99.6557
953.6269,99.6278
954.5911,99.5934
955.5554,99.5453
956.5196,99.481
957.4838,99.4039
958.4481,99.321
959.4123,99.2389
960.3765,99.1603
961.3408,99.0833
962.3050,99.0041
963.2692,98.9213
964.2335,98.838
965.1977,98.7607
966.1619,98.6953
967.1262,98.6433
968.0904,98.6004
969.0546,98.5595
970.0189,98.5138
970.9831,98.4605
971.9473,98.4001
972.9116,98.3345
973.8758,98.264
974.8400,98.1862
975.8043,98.0968
976.7685,97.9913
977.7327,97.8673
978.6970,97.7255
979.6612,97.5698
980.6254,97.4059
981.5897,97.2401
982.5539,97.0768
983.5181,96.9175
984.4824,96.7604
985.4466,96.6013
986.4108,96.4358
987.3751,96.2614
988.3393,96.078
989.3035,95.8872
990.2678,95.6906
991.2320,95.4876
992.1962,95.2753
993.1605,95.0493
994.1247,94.8065
995.0889,94.5466
996.0532,94.2729
997.0174,93.9907
997.9816,93.7055
998.9459,93.42
999.9101,93.1334
1000.8743,92.8416
1001.8386,92.538
1002.8028,92.2167
1003.7670,91.8737
1004.7313,91.5087
1005.6955,91.1247
1006.6597,90.7267
1007.6240,90.3199
1008.5882,89.908
1009.5524,89.4932
1010.5167,89.0766
1011.4809,88.66
1012.4451,88.2473
1013.4094,87.8441
1014.3736,87.457
1015.3378,87.0917
1016.3021,86.7516
1017.2663,86.4371
1018.2305,86.1474
1019.1948,85.8815
1020.1590,85.6405
1021.1232,85.4277
1022.0875,85.2471
1023.0517,85.1017
1024.0160,84.9909
1024.9802,84.91
1025.9445,84.8518
1026.9087,84.8098
1027.8729,84.7828
1028.8372,84.7772
1029.8014,84.8069
1030.7656,84.8892
1031.7299,85.0385
1032.6941,85.2613
1033.6583,85.5539
1034.6226,85.904
1035.5868,86.295
1036.5510,86.7119
1037.5153,87.144
1038.4795,87.5836
1039.4437,88.0227
1040.4080,88.449
1041.3722,88.8463
1042.3364,89.1971
1043.3007,89.4883
1044.2649,89.7148
1045.2291,89.8812
1046.1934,89.9987
1047.1576,90.0809
1048.1218,90.14
1049.0861,90.1846
1050.0503,90.2203
1051.0145,90.2512
1051.9788,90.2812
1052.9430,90.3146
1053.9072,90.3552
1054.8715,90.4049
1055.8357,90.4628
1056.7999,90.5265
1057.7642,90.5938
1058.7284,90.6657
1059.6926,90.746
1060.6569,90.8405
1061.6211,90.9519
1062.5853,91.0769
1063.5496,91.2053
1064.5138,91.3218
1065.4780,91.4113
1066.4423,91.4635
1067.4065,91.4751
1068.3707,91.4477
1069.3350,91.384
1070.2992,91.2856
1071.2634,91.1539
1072.2277,90.9919
1073.1919,90.8054
1074.1561,90.6011
1075.1204,90.3844
1076.0846,90.1571
1077.0488,89.9165
1078.0131,89.6575
1078.9773,89.3746
1079.9415,89.0645
1080.9058,88.728
1081.8700,88.3701
1082.8342,87.9992
1083.7985,87.6246
1084.7627,87.2533
1085.7269,86.888
1086.6912,86.5275
1087.6554,86.1695
1088.6196,85.8144
1089.5839,85.467
1090.5481,85.1355
1091.5123,84.8284
1092.4766,84.5511
1093.4408,84.304
1094.4050,84.0829
1095.3693,83.8798
1096.3335,83.6846
1097.2977,83.4852
1098.2620,83.2692
1099.2262,83.0248
1100.1904,82.744
1101.1547,82.424
1102.1189,82.0675
1103.0831,81.6814
1104.0474,81.2746
1105.0116,80.8561
1105.9758,80.4367
1106.9401,80.0305
1107.9043,79.6572
1108.8685,79.3409
1109.8328,79.1065
1110.7970,78.9745
1111.7612,78.9574
1112.7255,79.0589
1113.6897,79.2765
1114.6539,79.6054
1115.6182,80.0402
1116.5824,80.5751
1117.5466,81.2013
1118.5109,81.9059
1119.4751,82.6721
1120.4393,83.4826
1121.4036,84.3228
1122.3678,85.1836
1123.3320,86.0611
1124.2963,86.9544
1125.2605,87.8628
1126.2247,88.7839
1127.1890,89.7129
1128.1532,90.6428
1129.1174,91.565
1130.0817,92.4697
1131.0459,93.3461
1132.0101,94.182
1132.9744,94.9648
1133.9386,95.6818
1134.9028,96.3219
1135.8671,96.8767
1136.8313,97.3422
1137.7955,97.7188
1138.7598,98.0105
1139.7240,98.2242
1140.6882,98.3678
1141.6525,98.4502
1142.6167,98.481
1143.5809,98.471
1144.5452,98.4318
1145.5094,98.3749
1146.4736,98.3107
1147.4379,98.2473
1148.4021,98.1908
1149.3663,98.1465
1150.3306,98.1202
1151.2948,98.1188
1152.2590,98.1484
1153.2233,98.2123
1154.1875,98.3082
1155.1517,98.4289
1156.1160,98.5645
1157.0802,98.7062
1158.0444,98.8487
1159.0087,98.9904
1159.9729,99.1315
1160.9371,99.2713
1161.9014,99.4072
1162.8656,99.5349
1163.8298,99.6433
1164.7941,99.6668
1165.7583,99.6707
1166.7225,99.6519
1167.6868,99.6074
1168.6510,99.5341
1169.6152,99.4297
1170.5795,99.2922
1171.5437,99.1197
1172.5079,98.9103
1173.4722,98.663
1174.4364,98.3784
1175.4006,98.0593
1176.3649,97.7102
1177.3291,97.3354
1178.2933,96.9384
1179.2576,96.5214
1180.2218,96.0878
1181.1860,95.6424
1182.1503,95.1926
1183.1145,94.7459
1184.0787,94.3086
1185.0430,93.8837
1186.0072,93.4712
1186.9714,93.0689
1187.9357,92.6748
1188.8999,92.2883
1189.8641,91.9109
1190.8284,91.5445
1191.7926,91.1903
1192.7568,90.8466
1193.7211,90.509
1194.6853,90.1715
1195.6495,89.8285
1196.6138,89.4757
1197.5780,89.1114
1198.5422,88.7354
1199.5065,88.2937
1200.4707,87.9039
1201.4349,87.5078
1202.3992,87.1095
1203.3634,86.7151
1204.3276,86.3317
1205.2919,85.9665
1206.2561,85.6261
1207.2203,85.3163
1208.1846,85.0427
1209.1488,84.8106
1210.1130,84.6248
1211.0773,84.4893
1212.0415,84.4066
1213.0057,84.3781
1213.9700,84.404
1214.9342,84.4833
1215.8984,84.6136
1216.8627,84.7908
1217.8269,85.0087
1218.7911,85.2602
1219.7554,85.5387
1220.7196,85.8382
1221.6838,86.1535
1222.6481,86.4793
1223.6123,86.8083
1224.5765,87.1317
1225.5408,87.4395
1226.5050,87.7231
1227.4692,87.9768
1228.4335,88.1991
1229.3977,88.3919
1230.3619,88.5597
1231.3262,88.7073
1232.2904,88.8391
1233.2546,88.9584
1234.2189,89.0675
1235.1831,89.1686
1236.1473,89.2644
1237.1116,89.3591
1238.0758,89.457
1239.0400,89.5625
1240.0043,89.6783
1240.9685,89.8051
1241.9327,89.9418
1242.8970,90.0861
1243.8612,90.2355
1244.8254,90.3878
1245.7897,90.5404
1246.7539,90.6898
1247.7181,90.8312
1248.6824,90.9589
1249.6466,91.0674
1250.6108,91.1521
1251.5751,91.2104
1252.5393,91.2415
1253.5035,91.2461
1254.4678,91.2263
1255.4320,91.1851
1256.3962,91.1258
1257.3605,91.0515
1258.3247,90.9643
1259.2889,90.8655
1260.2532,90.7563
1261.2174,90.6388
1262.1816,90.5167
1263.1459,90.3947
1264.1101,90.2779
1265.0743,90.171
1266.0386,90.0781
1267.0028,90.0029
1267.9670,89.9496
1268.9313,89.9224
1269.8955,89.9254
1270.8597,89.9604
1271.8240,90.0257
1272.7882,90.1161
1273.7524,90.2237
1274.7167,90.3406
1275.6809,90.4608
1276.6451,90.5815
1277.6094,90.7023
1278.5736,90.8239
1279.5378,90.946
1280.5021,91.0666
1281.4663,91.182
1282.4305,91.2885
1283.3948,91.3833
1284.3590,91.4656
1285.3232,91.5359
1286.2875,91.5946
1287.2517,91.6412
1288.2159,91.6742
1289.1802,91.6924
1290.1444,91.6961
1291.1086,91.6868
1292.0729,91.6665
1293.0371,91.6359
1294.0013,91.5945
1294.9656,91.5407
1295.9298,91.4738
1296.8940,91.3952
1297.8583,91.3079
1298.8225,91.2153
1299.7867,91.1201
1300.7510,91.0237
1301.7152,90.9273
1302.6794,90.8325
1303.6437,90.7414
1304.6079,90.6567
1305.5721,90.58
1306.5364,90.5112
1307.5006,90.4481
1308.4648,90.3884
1309.4291,90.3309
1310.3933,90.2767
1311.3575,90.2283
1312.3218,90.1885
1313.2860,90.1583
1314.2502,90.1373
1315.2145,90.124
1316.1787,90.1178
1317.1429,90.1184
1318.1072,90.1254
1319.0714,90.137
1320.0356,90.151
1320.9999,90.166
1321.9641,90.1827
1322.9283,90.2039
1323.8926,90.2343
1324.8568,90.2787
1325.8210,90.3414
1326.7853,90.4254
1327.7495,90.5329
1328.7137,90.6661
1329.6780,90.8268
1330.6422,91.0145
1331.6064,91.2245
1332.5707,91.4473
1333.5349,91.6725
1334.4991,91.895
1335.4634,92.1203
1336.4276,92.3644
1337.3918,92.6454
1338.3561,92.9675
1339.3203,93.3111
1340.2845,93.6428
1341.2488,93.9387
1342.2130,94.1943
1343.1772,94.4185
1344.1415,94.6226
1345.1057,94.8139
1346.0699,94.9936
1347.0342,95.1576
1347.9984,95.3008
1348.9626,95.4205
1349.9269,95.5186
1350.8911,95.5995
1351.8553,95.6699
1352.8196,95.7367
1353.7838,95.8056
1354.7480,95.8768
1355.7123,95.9434
1356.6765,95.9948
1357.6407,96.0241
1358.6050,96.0358
1359.5692,96.0475
1360.5334,96.0819
1361.4977,96.1505
1362.4619,96.2422
1363.4261,96.3345
1364.3904,96.4133
1365.3546,96.4801
1366.3188,96.5444
1367.2831,96.6152
1368.2473,96.696
1369.2115,96.7853
1370.1758,96.8829
1371.1400,96.998
1372.1042,97.1497
1373.0685,97.3542
1374.0327,97.6063
1374.9969,97.8751
1375.9612,98.1259
1376.9254,98.3447
1377.8896,98.5397
1378.8539,98.7272
1379.8181,98.9155
1380.7823,99.097
1381.7466,99.2539
1382.7108,99.3719
1383.6750,99.4534
1384.6393,99.519
1385.6035,99.5964
1386.5677,99.7005
1387.5320,99.821
1388.4962,99.9336
1389.4604,100.019
1390.4247,100.068
1391.3889,100.087
1392.3531,100.089
1393.3174,100.093
1394.2816,100.108
1395.2458,100.126
1396.2101,100.135
1397.1743,100.127
1398.1385,100.105
1399.1028,100.072
1400.0670,100.03
1401.0313,99.9544
1401.9955,99.8528
1402.9597,99.7224
1403.9240,99.5579
1404.8882,99.3567
1405.8524,99.1209
1406.8167,98.8569
1407.7809,98.5678
1408.7451,98.247
1409.7094,97.883
1410.6736,97.4705
1411.6378,97.0178
1412.6021,96.5439
1413.5663,96.0624
1414.5305,95.5719
1415.4948,95.0607
1416.4590,94.5199
1417.4232,93.9555
1418.3875,93.4013
1419.3517,92.9175
1420.3159,92.55
1421.2802,92.2941
1422.2444,92.1124
1423.2086,91.9736
1424.1729,91.8668
1425.1371,91.7964
1426.1013,91.7759
1427.0656,91.8253
1428.0298,91.9658
1428.9940,92.2027
1429.9583,92.5049
1430.9225,92.8096
1431.8867,93.0588
1432.8510,93.2321
1433.8152,93.3504
1434.7794,93.4521
1435.7437,93.5507
1436.7079,93.6072
1437.6721,93.5667
1438.6364,93.411
1439.6006,93.1469
1440.5648,92.7793
1441.5291,92.3146
1442.4933,91.7714
1443.4575,91.1792
1444.4218,90.5658
1445.3860,89.9476
1446.3502,89.3323
1447.3145,88.7345
1448.2787,88.1846
1449.2429,87.7155
1450.2072,87.3346
1451.1714,87.0152
1452.1356,86.7172
1453.0999,86.4178
1454.0641,86.135
1455.0283,85.9297
1455.9926,85.8574
1456.9568,85.8661
1457.9210,85.8391
1458.8853,85.7729
1459.8495,85.7123
1460.8137,85.6628
1461.7780,85.6391
1462.7422,85.707
1463.7064,85.9634
1464.6707,86.453
1465.6349,87.0926
1466.5991,87.7287
1467.5634,88.2643
1468.5276,88.7006
1469.4918,89.1118
1470.4561,89.6169
1471.4203,90.3284
1472.3845,91.2372
1473.3488,92.1359
1474.3130,92.8032
1475.2772,93.2199
1476.2415,93.4816
1477.2057,93.6564
1478.1699,93.765
1479.1342,93.8066
1480.0984,93.7763
1481.0626,93.6717
1482.0269,93.495
1482.9911,93.2542
1483.9553,92.9616
1484.9196,92.6326
1485.8838,92.2829
1486.8480,91.9237
1487.8123,91.5479
1488.7765,91.1325
1489.7407,90.6842
1490.7050,90.2586
1491.6692,89.8915
1492.6334,89.5648
1493.5977,89.2444
1494.5619,88.9153
1495.5261,88.5895
1496.4904,88.2916
1497.4546,88.0408
1498.4188,87.8429
1499.3831,87.686
1500.3473,87.5369
1501.3115,87.3537
1502.2758,87.1093
1503.2400,86.8109
1504.2042,86.5119
1505.1685,86.3051
1506.1327,86.241
1507.0969,86.1957
1508.0612,86.0356
1509.0254,85.8472
1509.9896,85.7051
1510.9539,85.5915
1511.9181,85.4958
1512.8823,85.4577
1513.8466,85.556
1514.8108,85.8648
1515.7750,86.396
1516.7393,87.084
1517.7035,87.8533
1518.6677,88.7131
1519.6320,89.7636
1520.5962,91.0731
1521.5604,92.5354
1522.5247,93.9124
1523.4889,95.0416
1524.4531,95.9365
1525.4174,96.6996
1526.3816,97.398
1527.3458,98.0204
1528.3101,98.5193
1529.2743,98.8742
1530.2385,99.1179
1531.2028,99.3228
1532.1670,99.5541
1533.1312,99.8109
1534.0955,100.022
1535.0597,100.116
1536.0239,100.081
1536.9882,99.9684
1537.9524,99.8817
1538.9166,99.9648
1539.8809,100.276
1540.8451,100.592
1541.8093,100.652
1542.7736,100.543
1543.7378,100.43
1544.7020,100.351
1545.6663,100.284
1546.6305,100.211
1547.5947,100.123
1548.5590,100.019
1549.5232,99.8994
1550.4874,99.7967
1551.4517,99.681
1552.4159,99.5487
1553.3801,99.3947
1554.3444,99.2175
1555.3086,99.0331
1556.2728,98.8847
1557.2371,98.8033
1558.2013,98.6962
1559.1655,98.451
1560.1298,98.2172
1561.0940,98.1224
1562.0582,98.0994
1563.0225,98.0513
1563.9867,97.9326
1564.9509,97.7457
1565.9152,97.5163
1566.8794,97.2688
1567.8436,97.0074
1568.8079,96.7196
1569.7721,96.4085
1570.7363,96.1012
1571.7006,95.8146
1572.6648,95.5366
1573.6290,95.2417
1574.5933,94.9056
1575.5575,94.5118
1576.5217,94.0763
1577.4860,93.6626
1578.4502,93.3151
1579.4144,93.0084
1580.3787,92.6891
1581.3429,92.3273
1582.3071,91.9293
1583.2714,91.5243
1584.2356,91.1406
1585.1998,90.7894
1586.1641,90.4654
1587.1283,90.161
1588.0925,89.8762
1589.0568,89.6175
1590.0210,89.3898
1590.9852,89.1927
1591.9495,89.0225
1592.9137,88.8755
1593.8779,88.749
1594.8422,88.6389
1595.8064,88.5394
1596.7706,88.4457
1597.7349,88.3572
1598.6991,88.2773
1599.6633,88.2102
1600.6276,88.1585
1601.5918,88.1218
1602.5560,88.0982
1603.5203,88.0855
1604.4845,88.0823
1605.4487,88.0888
1606.4130,88.1089
1607.3772,88.151
1608.3414,88.2219
1609.3057,88.3181
1610.2699,88.4222
1611.2341,88.5124
1612.1984,88.5809
1613.1626,88.6526
1614.1268,88.7943
1615.0911,89.0908
1616.0553,89.5638
1617.0195,90.1069
1617.9838,90.5781
1618.9480,90.9327
1619.9122,91.2167
1620.8765,91.5037
1621.8407,91.8532
1622.8049,92.2737
1623.7692,92.708
1624.7334,93.0831
1625.6976,93.379
1626.6619,93.6306
1627.6261,93.8757
1628.5903,94.116
1629.5546,94.3196
1630.5188,94.4523
1631.4830,94.5073
1632.4473,94.5189
1633.4115,94.5627
1634.3757,94.7237
1635.3400,95.0059
1636.3042,95.2853
1637.2684,95.4611
1638.2327,95.5541
1639.1969,95.6078
1640.1611,95.6314
1641.1254,95.6171
1642.0896,95.5629
1643.0538,95.486
1644.0181,95.4279
1644.9823,95.4353
1645.9465,95.5058
1646.9108,95.5619
1647.8750,95.5326
1648.8392,95.4152
1649.8035,95.2413
1650.7677,95.064
1651.7319,94.9603
1652.6962,94.9592
1653.6604,94.9659
1654.6246,94.9319
1655.5889,94.9102
1656.5531,94.8977
1657.5173,94.8549
1658.4816,94.7662
1659.4458,94.6478
1660.4100,94.5299
1661.3743,94.4293
1662.3385,94.3383
1663.3027,94.2414
1664.2670,94.1344
1665.2312,94.0206
1666.1954,93.9086
1667.1597,93.8156
1668.1239,93.7594
1669.0881,93.7355
1670.0524,93.7118
1671.0166,93.6617
1671.9808,93.587
1672.9451,93.5036
1673.9093,93.4295
1674.8735,93.3808
1675.8378,93.3639
1676.8020,93.3698
1677.7662,93.3759
1678.7305,93.3564
1679.6947,93.2982
1680.6589,93.2157
1681.6232,93.1536
1682.5874,93.1602
1683.5516,93.2242
1684.5159,93.278
1685.4801,93.2997
1686.4443,93.3126
1687.4086,93.3188
1688.3728,93.3012
1689.3370,93.2462
1690.3013,93.1508
1691.2655,93.0208
1692.2297,92.8679
1693.1940,92.7088
1694.1582,92.5634
1695.1224,92.449
1696.0867,92.3676
1697.0509,92.2992
1698.0151,92.2109
1698.9794,92.0888
1699.9436,91.9584
1700.9078,91.8623
1701.8721,91.8187
1702.8363,91.8128
1703.8005,91.8166
1704.7648,91.8085
1705.7290,91.779
1706.6932,91.731
1707.6575,91.6755
1708.6217,91.6224
1709.5859,91.5739
1710.5502,91.5259
1711.5144,91.4753
1712.4786,91.4265
1713.4429,91.3984
1714.4071,91.4265
1715.3713,91.5464
1716.3356,91.7454
1717.2998,91.9441
1718.2640,92.0864
1719.2283,92.1927
1720.1925,92.2964
1721.1567,92.4086
1722.1210,92.5282
1723.0852,92.6523
1724.0494,92.7776
1725.0137,92.9019
1725.9779,93.0256
1726.9421,93.1494
1727.9064,93.2701
1728.8706,93.3815
1729.8348,93.4848
