TITLE,
DATA TYPE,INFRARED SPECTRUM
ORIGIN,JASCO
OWNER,
DATE,24/04/24
TIME,16:04:11
SPECTROMETER/DATA SYSTEM,
LOCALE,1033
RESOLUTION,
DELTAX,0.964233
XUNITS,1/CM
YUNITS,TRANSMITTANCE
FIRSTX,  649.8934
LASTX, 4000.6047
NPOINTS,    3476
FIRSTY,    99.26925
MAXY,   101.86971
MINY,    84.97746
XYDATA
649.8934,99.2692
650.8576,99.3387
651.8218,99.4196
652.7861,99.4916
653.7503,99.534
654.7145,99.5
655.6788,99.4367
656.6430,99.3733
657.6072,99.3258
658.5715,99.2918
659.5357,99.2555
660.4999,99.2056
661.4642,99.1513
662.4284,99.1222
663.3926,99.1516
664.3569,99.2643
665.3211,99.4727
666.2853,99.7648
667.2496,100.067
668.2138,100.225
669.1780,100.149
670.1423,99.9579
671.1065,99.8143
672.0707,99.7756
673.0350,99.8266
673.9992,99.9294
674.9634,100.042
675.9277,100.131
676.8919,100.183
677.8561,100.208
678.8204,100.227
679.7846,100.255
680.7488,100.294
681.7131,100.34
682.6773,100.387
683.6415,100.432
684.6058,100.475
685.5700,100.513
686.5342,100.542
687.4985,100.555
688.4627,100.547
689.4269,100.518
690.3912,100.476
691.3554,100.43
692.3196,100.388
693.2839,100.349
694.2481,100.314
695.2123,100.282
696.1766,100.253
697.1408,100.226
698.1050,100.198
699.0693,100.173
700.0335,100.158
700.9977,100.157
701.9620,100.167
702.9262,100.179
703.8904,100.183
704.8547,100.17
705.8189,100.14
706.7831,100.101
707.7474,100.065
708.7116,100.042
709.6758,100.035
710.6401,100.039
711.6043,100.046
712.5685,100.044
713.5328,100.025
714.4970,99.992
715.4612,99.9313
716.4255,99.9096
717.3897,99.9176
718.3539,99.9632
719.3182,100.04
720.2824,100.129
721.2466,100.209
722.2109,100.267
723.1751,100.306
724.1393,100.338
725.1036,100.376
726.0678,100.423
727.0320,100.477
727.9963,100.529
728.9605,100.576
729.9247,100.62
730.8890,100.669
731.8532,100.73
732.8174,100.803
733.7817,100.88
734.7459,100.946
735.7101,100.991
736.6744,101.011
737.6386,101.011
738.6028,101.006
739.5671,101.012
740.5313,101.035
741.4955,101.074
742.4598,101.116
743.4240,101.144
744.3882,101.147
745.3525,101.122
746.3167,101.08
747.2809,101.037
748.2452,101.011
749.2094,101.012
750.1736,101.043
751.1379,101.094
752.1021,101.149
753.0663,101.191
754.0306,101.205
754.9948,101.19
755.9590,101.151
756.9233,101.103
757.8875,101.059
758.8517,101.025
759.8160,101.002
760.7802,100.986
761.7444,100.975
762.7087,100.969
763.6729,100.972
764.6371,100.982
765.6014,100.991
766.5656,100.991
767.5298,100.976
768.4941,100.946
769.4583,100.911
770.4225,100.881
771.3868,100.861
772.3510,100.853
773.3152,100.85
774.2795,100.846
775.2437,100.836
776.2079,100.821
777.1722,100.803
778.1364,100.785
779.1006,100.772
780.0649,100.766
781.0291,100.771
781.9933,100.786
782.9576,100.809
783.9218,100.835
784.8860,100.859
785.8503,100.882
786.8145,100.906
787.7787,100.935
788.7430,100.969
789.7072,101.002
790.6714,101.025
791.6357,101.028
792.5999,101.01
793.5641,100.979
794.5284,100.948
795.4926,100.932
796.4568,100.936
797.4211,100.956
798.3853,100.977
799.3495,100.985
800.3138,100.971
801.2780,100.937
802.2422,100.893
803.2065,100.852
804.1707,100.823
805.1349,100.809
806.0992,100.802
807.0634,100.797
808.0276,100.787
808.9919,100.773
809.9561,100.762
810.9203,100.757
811.8846,100.76
812.8488,100.767
813.8130,100.77
814.7773,100.762
815.7415,100.74
816.7057,100.706
817.6700,100.666
818.6342,100.625
819.5984,100.585
820.5627,100.547
821.5269,100.515
822.4911,100.493
823.4554,100.484
824.4196,100.489
825.3839,100.501
826.3481,100.509
827.3123,100.503
828.2766,100.478
829.2408,100.439
830.2050,100.394
831.1693,100.349
832.1335,100.31
833.0977,100.277
834.0620,100.252
835.0262,100.237
835.9904,100.237
836.9547,100.251
837.9189,100.274
838.8831,100.298
839.8474,100.312
840.8116,100.312
841.7758,100.297
842.7401,100.293
843.7043,100.287
844.6685,100.281
845.6328,100.277
846.5970,100.276
847.5612,100.275
848.5255,100.273
849.4897,100.264
850.4539,100.245
851.4182,100.218
852.3824,100.184
853.3466,100.15
854.3109,100.119
855.2751,100.092
856.2393,100.069
857.2036,100.049
858.1678,100.029
859.1320,100.009
860.0963,99.9882
861.0605,99.9642
862.0247,99.9359
862.9890,99.903
863.9532,99.8658
864.9174,99.8238
865.8817,99.7741
866.8459,99.7118
867.8101,99.6323
868.7744,99.5349
869.7386,99.4239
870.7028,99.3075
871.6671,99.1928
872.6313,99.0828
873.5955,98.9748
874.5598,98.8636
875.5240,98.7464
876.4882,98.6261
877.4525,98.511
878.4167,98.4111
879.3809,98.3333
880.3452,98.2778
881.3094,98.2382
882.2736,98.2043
883.2379,98.1661
884.2021,98.1164
885.1663,98.0526
886.1306,97.9763
887.0948,97.8925
888.0590,97.8078
889.0233,97.7276
889.9875,97.6546
890.9517,97.5879
891.9160,97.5251
892.8802,97.4657
893.8444,97.4133
894.8087,97.3763
895.7729,97.3635
896.7371,97.3803
897.7014,97.425
898.6656,97.4902
899.6298,97.5664
900.5941,97.646
901.5583,97.7256
902.5225,97.8043
903.4868,97.8819
904.4510,97.9568
905.4152,98.026
906.3795,98.0866
907.3437,98.1364
908.3079,98.1738
909.2722,98.1979
910.2364,98.2084
911.2006,98.2068
912.1649,98.1966
913.1291,98.1823
914.0933,98.1671
915.0576,98.1513
916.0218,98.1319
916.9860,98.1051
917.9503,98.069
918.9145,98.025
919.8787,97.9766
920.8430,97.9272
921.8072,97.8779
922.7714,97.8271
923.7357,97.7721
924.6999,97.7107
925.6641,97.6417
926.6284,97.5655
927.5926,97.483
928.5568,97.3964
929.5211,97.3083
930.4853,97.2214
931.4495,97.1361
932.4138,97.0493
933.3780,96.9541
934.3422,96.8428
935.3065,96.7116
936.2707,96.5626
937.2349,96.4033
938.1992,96.2428
939.1634,96.0874
940.1276,95.9377
941.0919,95.7904
942.0561,95.6412
943.0203,95.4877
943.9846,95.3298
944.9488,95.168
945.9130,95.0018
946.8773,94.83
947.8415,94.6528
948.8057,94.4737
949.7700,94.2994
950.7342,94.1372
951.6984,93.9911
952.6627,93.8598
953.6269,93.737
954.5911,93.6157
955.5554,93.4911
956.5196,93.3633
957.4838,93.2359
958.4481,93.1134
959.4123,92.9981
960.3765,92.8889
961.3408,92.7825
962.3050,92.6748
963.2692,92.5623
964.2335,92.4432
965.1977,92.3171
966.1619,92.1841
967.1262,92.0451
968.0904,91.9002
969.0546,91.7492
970.0189,91.5903
970.9831,91.4211
971.9473,91.2393
972.9116,91.0435
973.8758,90.8345
974.8400,90.6146
975.8043,90.3868
976.7685,90.1538
977.7327,89.9178
978.6970,89.6806
979.6612,89.4447
980.6254,89.2136
981.5897,88.9914
982.5539,88.7824
983.5181,88.5907
984.4824,88.4193
985.4466,88.27
986.4108,88.1426
987.3751,88.0345
988.3393,87.9413
989.3035,87.8576
990.2678,87.7785
991.2320,87.6999
992.1962,87.6192
993.1605,87.534
994.1247,87.4424
995.0889,87.3431
996.0532,87.237
997.0174,87.1275
997.9816,87.0192
998.9459,86.9166
999.9101,86.8212
1000.8743,86.7314
1001.8386,86.6436
1002.8028,86.5547
1003.7670,86.4641
1004.7313,86.3744
1005.6955,86.2898
1006.6597,86.2137
1007.6240,86.1464
1008.5882,86.0842
1009.5524,86.0213
1010.5167,85.9522
1011.4809,85.8746
1012.4451,85.7909
1013.4094,85.7063
1014.3736,85.626
1015.3378,85.5524
1016.3021,85.4851
1017.2663,85.4229
1018.2305,85.3664
1019.1948,85.3181
1020.1590,85.2793
1021.1232,85.247
1022.0875,85.2131
1023.0517,85.1687
1024.0160,85.1111
1024.9802,85.0482
1025.9445,84.9974
1026.9087,84.9775
1027.8729,84.9986
1028.8372,85.0562
1029.8014,85.1333
1030.7656,85.2087
1031.7299,85.2658
1032.6941,85.2976
1033.6583,85.3064
1034.6226,85.3012
1035.5868,85.2937
1036.5510,85.2951
1037.5153,85.3129
1038.4795,85.3482
1039.4437,85.3955
1040.4080,85.4443
1041.3722,85.484
1042.3364,85.5083
1043.3007,85.5175
1044.2649,85.5178
1045.2291,85.5178
1046.1934,85.5242
1047.1576,85.5412
1048.1218,85.571
1049.0861,85.616
1050.0503,85.6792
1051.0145,85.7635
1051.9788,85.8701
1052.9430,85.9988
1053.9072,86.1495
1054.8715,86.3246
1055.8357,86.5294
1056.7999,86.7683
1057.7642,87.0394
1058.7284,87.3297
1059.6926,87.6171
1060.6569,87.8772
1061.6211,88.0939
1062.5853,88.2675
1063.5496,88.4157
1064.5138,88.5677
1065.4780,88.7506
1066.4423,88.9761
1067.4065,89.2339
1068.3707,89.4973
1069.3350,89.7367
1070.2992,89.9323
1071.2634,90.0808
1072.2277,90.1948
1073.1919,90.2953
1074.1561,90.4038
1075.1204,90.5341
1076.0846,90.6902
1077.0488,90.8666
1078.0131,91.0535
1078.9773,91.2412
1079.9415,91.4239
1080.9058,91.6012
1081.8700,91.776
1082.8342,91.9501
1083.7985,92.1212
1084.7627,92.2821
1085.7269,92.4235
1086.6912,92.5396
1087.6554,92.6314
1088.6196,92.7064
1089.5839,92.7747
1090.5481,92.8432
1091.5123,92.9127
1092.4766,92.9793
1093.4408,93.0381
1094.4050,93.0878
1095.3693,93.1323
1096.3335,93.1777
1097.2977,93.2289
1098.2620,93.2865
1099.2262,93.3472
1100.1904,93.4078
1101.1547,93.4685
1102.1189,93.535
1103.0831,93.6163
1104.0474,93.7197
1105.0116,93.8475
1105.9758,93.9957
1106.9401,94.1567
1107.9043,94.3235
1108.8685,94.493
1109.8328,94.6661
1110.7970,94.8453
1111.7612,95.0319
1112.7255,95.2244
1113.6897,95.4187
1114.6539,95.6103
1115.6182,95.7958
1116.5824,95.9726
1117.5466,96.139
1118.5109,96.293
1119.4751,96.4333
1120.4393,96.5606
1121.4036,96.6783
1122.3678,96.7921
1123.3320,96.9074
1124.2963,97.0269
1125.2605,97.1495
1126.2247,97.271
1127.1890,97.3872
1128.1532,97.4962
1129.1174,97.5994
1130.0817,97.7003
1131.0459,97.8015
1132.0101,97.9025
1132.9744,97.9984
1133.9386,98.0816
1134.9028,98.1447
1135.8671,98.1831
1136.8313,98.1959
1137.7955,98.1858
1138.7598,98.1575
1139.7240,98.1153
1140.6882,98.0625
1141.6525,98.0007
1142.6167,97.9311
1143.5809,97.8545
1144.5452,97.7721
1145.5094,97.6856
1146.4736,97.5966
1147.4379,97.5069
1148.4021,97.4181
1149.3663,97.3322
1150.3306,97.2516
1151.2948,97.1789
1152.2590,97.1165
1153.2233,97.0662
1154.1875,97.0289
1155.1517,97.0044
1156.1160,96.9921
1157.0802,96.9914
1158.0444,97.0022
1159.0087,97.0252
1159.9729,97.0627
1160.9371,97.118
1161.9014,97.1951
1162.8656,97.2971
1163.8298,97.4244
1164.7941,97.5745
1165.7583,97.7418
1166.7225,97.9199
1167.6868,98.1027
1168.6510,98.2862
1169.6152,98.4678
1170.5795,98.6455
1171.5437,98.817
1172.5079,98.9791
1173.4722,99.1291
1174.4364,99.2653
1175.4006,99.3881
1176.3649,99.4987
1177.3291,99.5988
1178.2933,99.6886
1179.2576,99.7674
1180.2218,99.8335
1181.1860,99.8857
1182.1503,99.952
1183.1145,100.006
1184.0787,100.048
1185.0430,100.082
1186.0072,100.109
1186.9714,100.13
1187.9357,100.143
1188.8999,100.148
1189.8641,100.144
1190.8284,100.128
1191.7926,100.102
1192.7568,100.067
1193.7211,100.026
1194.6853,99.9802
1195.6495,99.9331
1196.6138,99.8869
1197.5780,99.8439
1198.5422,99.8059
1199.5065,99.7344
1200.4707,99.7108
1201.4349,99.6895
1202.3992,99.6687
1203.3634,99.6483
1204.3276,99.6301
1205.2919,99.6166
1206.2561,99.6088
1207.2203,99.605
1208.1846,99.6006
1209.1488,99.5902
1210.1130,99.5687
1211.0773,99.533
1212.0415,99.4823
1213.0057,99.4177
1213.9700,99.3415
1214.9342,99.2567
1215.8984,99.1666
1216.8627,99.0738
1217.8269,98.9798
1218.7911,98.8857
1219.7554,98.7924
1220.7196,98.701
1221.6838,98.6127
1222.6481,98.528
1223.6123,98.4463
1224.5765,98.3662
1225.5408,98.2867
1226.5050,98.2087
1227.4692,98.1348
1228.4335,98.0683
1229.3977,98.0116
1230.3619,97.9653
1231.3262,97.929
1232.2904,97.9021
1233.2546,97.8843
1234.2189,97.8744
1235.1831,97.8681
1236.1473,97.8586
1237.1116,97.838
1238.0758,97.8027
1239.0400,97.7562
1240.0043,97.7093
1240.9685,97.6752
1241.9327,97.6634
1242.8970,97.6741
1243.8612,97.6996
1244.8254,97.7288
1245.7897,97.754
1246.7539,97.7742
1247.7181,97.7944
1248.6824,97.821
1249.6466,97.8576
1250.6108,97.9034
1251.5751,97.9544
1252.5393,98.0066
1253.5035,98.0583
1254.4678,98.1104
1255.4320,98.1648
1256.3962,98.2227
1257.3605,98.2837
1258.3247,98.3461
1259.2889,98.4078
1260.2532,98.4682
1261.2174,98.5289
1262.1816,98.5924
1263.1459,98.661
1264.1101,98.7349
1265.0743,98.8115
1266.0386,98.8865
1267.0028,98.9563
1267.9670,99.0193
1268.9313,99.0771
1269.8955,99.1333
1270.8597,99.1919
1271.8240,99.2552
1272.7882,99.3227
1273.7524,99.3915
1274.7167,99.458
1275.6809,99.5186
1276.6451,99.5715
1277.6094,99.6167
1278.5736,99.6561
1279.5378,99.6924
1280.5021,99.7287
1281.4663,99.7669
1282.4305,99.8073
1283.3948,99.8487
1284.3590,99.8891
1285.3232,99.9264
1286.2875,99.9586
1287.2517,99.9843
1288.2159,100.003
1289.1802,100.014
1290.1444,100.02
1291.1086,100.02
1292.0729,100.015
1293.0371,100.005
1294.0013,99.9888
1294.9656,99.9649
1295.9298,99.9319
1296.8940,99.8893
1297.8583,99.8372
1298.8225,99.7765
1299.7867,99.6988
1300.7510,99.5977
1301.7152,99.4955
1302.6794,99.395
1303.6437,99.2972
1304.6079,99.2018
1305.5721,99.1066
1306.5364,99.0094
1307.5006,98.909
1308.4648,98.8056
1309.4291,98.7006
1310.3933,98.5962
1311.3575,98.4941
1312.3218,98.3962
1313.2860,98.304
1314.2502,98.2194
1315.2145,98.1446
1316.1787,98.0823
1317.1429,98.0349
1318.1072,98.0036
1319.0714,97.9879
1320.0356,97.9851
1320.9999,97.9918
1321.9641,98.0047
1322.9283,98.0214
1323.8926,98.04
1324.8568,98.0594
1325.8210,98.0782
1326.7853,98.0957
1327.7495,98.1118
1328.7137,98.1276
1329.6780,98.1449
1330.6422,98.1654
1331.6064,98.1901
1332.5707,98.2187
1333.5349,98.2507
1334.4991,98.2865
1335.4634,98.329
1336.4276,98.3818
1337.3918,98.4462
1338.3561,98.5163
1339.3203,98.5806
1340.2845,98.6308
1341.2488,98.6672
1342.2130,98.6953
1343.1772,98.7192
1344.1415,98.7394
1345.1057,98.7545
1346.0699,98.762
1347.0342,98.7591
1347.9984,98.7437
1348.9626,98.7156
1349.9269,98.6761
1350.8911,98.6276
1351.8553,98.5728
1352.8196,98.5139
1353.7838,98.4525
1354.7480,98.3889
1355.7123,98.3231
1356.6765,98.2545
1357.6407,98.183
1358.6050,98.109
1359.5692,98.0343
1360.5334,97.9605
1361.4977,97.8866
1362.4619,97.8118
1363.4261,97.7393
1364.3904,97.6749
1365.3546,97.6196
1366.3188,97.5683
1367.2831,97.515
1368.2473,97.4568
1369.2115,97.3956
1370.1758,97.3377
1371.1400,97.2907
1372.1042,97.2604
1373.0685,97.2466
1374.0327,97.2412
1374.9969,97.2327
1375.9612,97.2158
1376.9254,97.1936
1377.8896,97.1731
1378.8539,97.1608
1379.8181,97.1601
1380.7823,97.1702
1381.7466,97.1862
1382.7108,97.2036
1383.6750,97.2229
1384.6393,97.2517
1385.6035,97.2976
1386.5677,97.3562
1387.5320,97.4076
1388.4962,97.4305
1389.4604,97.4158
1390.4247,97.3662
1391.3889,97.2938
1392.3531,97.22
1393.3174,97.172
1394.2816,97.169
1395.2458,97.2065
1396.2101,97.2561
1397.1743,97.2844
1398.1385,97.2752
1399.1028,97.2331
1400.0670,97.1735
1401.0313,97.1097
1401.9955,97.0478
1402.9597,96.9883
1403.9240,96.9297
1404.8882,96.8712
1405.8524,96.8136
1406.8167,96.7592
1407.7809,96.709
1408.7451,96.6626
1409.7094,96.6197
1410.6736,96.5822
1411.6378,96.5515
1412.6021,96.5252
1413.5663,96.4968
1414.5305,96.4609
1415.4948,96.4204
1416.4590,96.3888
1417.4232,96.3801
1418.3875,96.3945
1419.3517,96.4224
1420.3159,96.4607
1421.2802,96.5115
1422.2444,96.5714
1423.2086,96.6331
1424.1729,96.6904
1425.1371,96.7404
1426.1013,96.7852
1427.0656,96.831
1428.0298,96.8857
1428.9940,96.9519
1429.9583,97.0211
1430.9225,97.078
1431.8867,97.1106
1432.8510,97.1192
1433.8152,97.1181
1434.7794,97.1308
1435.7437,97.1724
1436.7079,97.2361
1437.6721,97.3048
1438.6364,97.3718
1439.6006,97.4342
1440.5648,97.4854
1441.5291,97.5185
1442.4933,97.532
1443.4575,97.528
1444.4218,97.5104
1445.3860,97.4827
1446.3502,97.4479
1447.3145,97.409
1448.2787,97.3705
1449.2429,97.3375
1450.2072,97.3111
1451.1714,97.2838
1452.1356,97.2448
1453.0999,97.1924
1454.0641,97.1493
1455.0283,97.1628
1455.9926,97.2604
1456.9568,97.372
1457.9210,97.4018
1458.8853,97.3843
1459.8495,97.3831
1460.8137,97.4007
1461.7780,97.4261
1462.7422,97.4707
1463.7064,97.5575
1464.6707,97.689
1465.6349,97.8331
1466.5991,97.951
1467.5634,98.0238
1468.5276,98.0532
1469.4918,98.0617
1470.4561,98.0944
1471.4203,98.2065
1472.3845,98.4188
1473.3488,98.681
1474.3130,98.9227
1475.2772,99.124
1476.2415,99.296
1477.2057,99.4451
1478.1699,99.5714
1479.1342,99.6744
1480.0984,99.7549
1481.0626,99.8129
1482.0269,99.8476
1482.9911,99.8577
1483.9553,99.8449
1484.9196,99.8171
1485.8838,99.7907
1486.8480,99.7865
1487.8123,99.8101
1488.7765,99.8305
1489.7407,99.8061
1490.7050,99.7405
1491.6692,99.6646
1492.6334,99.5909
1493.5977,99.517
1494.5619,99.4454
1495.5261,99.3865
1496.4904,99.3425
1497.4546,99.2971
1498.4188,99.236
1499.3831,99.1655
1500.3473,99.0896
1501.3115,98.9949
1502.2758,98.8674
1503.2400,98.7157
1504.2042,98.5893
1505.1685,98.5781
1506.1327,98.7345
1507.0969,98.92
1508.0612,98.949
1509.0254,98.886
1509.9896,98.8368
1510.9539,98.809
1511.9181,98.7839
1512.8823,98.7575
1513.8466,98.739
1514.8108,98.7363
1515.7750,98.7449
1516.7393,98.7513
1517.7035,98.748
1518.6677,98.7424
1519.6320,98.7489
1520.5962,98.772
1521.5604,98.8001
1522.5247,98.8181
1523.4889,98.8192
1524.4531,98.8027
1525.4174,98.7693
1526.3816,98.722
1527.3458,98.6658
1528.3101,98.6042
1529.2743,98.5372
1530.2385,98.4655
1531.2028,98.3942
1532.1670,98.3272
1533.1312,98.2598
1534.0955,98.183
1535.0597,98.0911
1536.0239,97.9839
1536.9882,97.8753
1537.9524,97.8116
1538.9166,97.8674
1539.8809,98.0562
1540.8451,98.2085
1541.8093,98.1646
1542.7736,98.0188
1543.7378,97.8934
1544.7020,97.811
1545.6663,97.7558
1546.6305,97.7126
1547.5947,97.6718
1548.5590,97.6279
1549.5232,97.5796
1550.4874,97.5286
1551.4517,97.4772
1552.4159,97.4237
1553.3801,97.3628
1554.3444,97.2934
1555.3086,97.233
1556.2728,97.2287
1557.2371,97.3217
1558.2013,97.4251
1559.1655,97.3756
1560.1298,97.2527
1561.0940,97.2026
1562.0582,97.2192
1563.0225,97.2439
1563.9867,97.2419
1564.9509,97.2085
1565.9152,97.1575
1566.8794,97.1069
1567.8436,97.0641
1568.8079,97.0197
1569.7721,96.9615
1570.7363,96.8905
1571.7006,96.8132
1572.6648,96.7331
1573.6290,96.6575
1574.5933,96.5993
1575.5575,96.561
1576.5217,96.5241
1577.4860,96.4766
1578.4502,96.4271
1579.4144,96.3782
1580.3787,96.32
1581.3429,96.2455
1582.3071,96.1573
1583.2714,96.0632
1584.2356,95.9697
1585.1998,95.8798
1586.1641,95.7937
1587.1283,95.7118
1588.0925,95.6357
1589.0568,95.5671
1590.0210,95.507
1590.9852,95.4554
1591.9495,95.4118
1592.9137,95.3762
1593.8779,95.3478
1594.8422,95.3246
1595.8064,95.3051
1596.7706,95.2889
1597.7349,95.2778
1598.6991,95.2744
1599.6633,95.2799
1600.6276,95.2931
1601.5918,95.3099
1602.5560,95.3251
1603.5203,95.3354
1604.4845,95.3399
1605.4487,95.3404
1606.4130,95.3391
1607.3772,95.3365
1608.3414,95.3303
1609.3057,95.3163
1610.2699,95.2907
1611.2341,95.2514
1612.1984,95.1986
1613.1626,95.139
1614.1268,95.089
1615.0911,95.0659
1616.0553,95.0676
1617.0195,95.0736
1617.9838,95.0739
1618.9480,95.0721
1619.9122,95.0691
1620.8765,95.0641
1621.8407,95.0597
1622.8049,95.0566
1623.7692,95.0486
1624.7334,95.0309
1625.6976,95.0063
1626.6619,94.9824
1627.6261,94.9636
1628.5903,94.9484
1629.5546,94.9284
1630.5188,94.8928
1631.4830,94.8367
1632.4473,94.7714
1633.4115,94.7307
1634.3757,94.7514
1635.3400,94.8235
1636.3042,94.8794
1637.2684,94.8896
1638.2327,94.8851
1639.1969,94.886
1640.1611,94.8852
1641.1254,94.8696
1642.0896,94.8344
1643.0538,94.7917
1644.0181,94.7736
1644.9823,94.8176
1645.9465,94.9217
1646.9108,95.0193
1647.8750,95.0473
1648.8392,95.0039
1649.8035,94.9234
1650.7677,94.8643
1651.7319,94.9095
1652.6962,95.0898
1653.6604,95.2846
1654.6246,95.3963
1655.5889,95.4746
1656.5531,95.5508
1657.5173,95.6114
1658.4816,95.6494
1659.4458,95.6806
1660.4100,95.7327
1661.3743,95.8208
1662.3385,95.9292
1663.3027,96.0264
1664.2670,96.0944
1665.2312,96.1369
1666.1954,96.1742
1667.1597,96.2381
1668.1239,96.3568
1669.0881,96.5227
1670.0524,96.6824
1671.0166,96.7869
1671.9808,96.8368
1672.9451,96.8638
1673.9093,96.9
1674.8735,96.9637
1675.8378,97.0532
1676.8020,97.1515
1677.7662,97.2369
1678.7305,97.2925
1679.6947,97.3145
1680.6589,97.3214
1681.6232,97.3568
1682.5874,97.4635
1683.5516,97.6226
1684.5159,97.7571
1685.4801,97.8425
1686.4443,97.9117
1687.4086,97.9807
1688.3728,98.0415
1689.3370,98.0817
1690.3013,98.0945
1691.2655,98.081
1692.2297,98.0511
1693.1940,98.0228
1694.1582,98.0177
1695.1224,98.0505
1696.0867,98.1167
1697.0509,98.1884
1698.0151,98.2326
1698.9794,98.242
1699.9436,98.2426
1700.9078,98.2656
1701.8721,98.3175
1702.8363,98.3806
1703.8005,98.4316
1704.7648,98.4549
1705.7290,98.4456
1706.6932,98.4095
1707.6575,98.3593
1708.6217,98.3058
1709.5859,98.2513
1710.5502,98.1919
1711.5144,98.1245
1712.4786,98.0526
1713.4429,97.9887
1714.4071,97.9486
1715.3713,97.9332
1716.3356,97.905
1717.2998,97.8198
1718.2640,97.6992
1719.2283,97.5994
1720.1925,97.5348
1721.1567,97.4841
1722.1210,97.4238
1723.0852,97.3431
1724.0494,97.2439
1725.0137,97.1357
1725.9779,97.0288
1726.9421,96.9288
1727.9064,96.8348
1728.8706,96.7429
1729.8348,96.6537
