TITLE,
DATA TYPE,INFRARED SPECTRUM
ORIGIN,JASCO
OWNER,
DATE,24/04/24
TIME,11:16:40
SPECTROMETER/DATA SYSTEM,
LOCALE,1033
RESOLUTION,
DELTAX,0.964233
XUNITS,1/CM
YUNITS,TRANSMITTANCE
FIRSTX,  649.8934
LASTX, 4000.6047
NPOINTS,    3476
FIRSTY,   100.88675
MAXY,   101.36865
MINY,    50.71766
XYDATA
649.8934,100.887
650.8576,100.768
651.8218,100.666
652.7861,100.593
653.7503,100.542
654.7145,100.497
655.6788,100.435
656.6430,100.33
657.6072,100.169
658.5715,99.969
659.5357,99.775
660.4999,99.6337
661.4642,99.5601
662.4284,99.5191
663.3926,99.4413
664.3569,99.2482
665.3211,98.8671
666.2853,98.2541
667.2496,97.4798
668.2138,96.8379
669.1780,96.6631
670.1423,96.9204
671.1065,97.3167
672.0707,97.6506
673.0350,97.862
673.9992,97.9562
674.9634,97.9599
675.9277,97.9118
676.8919,97.8592
677.8561,97.85
678.8204,97.9197
679.7846,98.0829
680.7488,98.3278
681.7131,98.6176
682.6773,98.9049
683.6415,99.1544
684.6058,99.3597
685.5700,99.5394
686.5342,99.7157
687.4985,99.891
688.4627,100.037
689.4269,100.109
690.3912,100.07
691.3554,99.9352
692.3196,99.7975
693.2839,99.8004
694.2481,100.027
695.2123,100.418
696.1766,100.835
697.1408,101.159
698.1050,101.335
699.0693,101.369
700.0335,101.307
700.9977,101.21
701.9620,101.122
702.9262,101.063
703.8904,101.038
704.8547,101.044
705.8189,101.079
706.7831,101.133
707.7474,101.187
708.7116,101.217
709.6758,101.198
710.6401,101.124
711.6043,101.004
712.5685,100.856
713.5328,100.696
714.4970,100.528
715.4612,100.584
716.4255,100.362
717.3897,100.133
718.3539,99.9309
719.3182,99.7999
720.2824,99.7724
721.2466,99.849
722.2109,99.9955
723.1751,100.16
724.1393,100.295
725.1036,100.374
726.0678,100.395
727.0320,100.373
727.9963,100.334
728.9605,100.303
729.9247,100.301
730.8890,100.33
731.8532,100.381
732.8174,100.434
733.7817,100.46
734.7459,100.437
735.7101,100.348
736.6744,100.19
737.6386,99.9722
738.6028,99.7148
739.5671,99.4415
740.5313,99.1752
741.4955,98.9335
742.4598,98.7257
743.4240,98.5529
744.3882,98.41
745.3525,98.2894
746.3167,98.1841
747.2809,98.09
748.2452,98.0059
749.2094,97.9322
750.1736,97.8692
751.1379,97.8156
752.1021,97.7686
753.0663,97.7252
754.0306,97.6833
754.9948,97.6414
755.9590,97.5974
756.9233,97.5473
757.8875,97.4853
758.8517,97.4067
759.8160,97.3116
760.7802,97.2068
761.7444,97.103
762.7087,97.0098
763.6729,96.9298
764.6371,96.8582
765.6014,96.7886
766.5656,96.7206
767.5298,96.6637
768.4941,96.6331
769.4583,96.6398
770.4225,96.6808
771.3868,96.7375
772.3510,96.7824
773.3152,96.7916
774.2795,96.7546
775.2437,96.6755
776.2079,96.5676
777.1722,96.4439
778.1364,96.312
779.1006,96.1721
780.0649,96.0216
781.0291,95.8587
781.9933,95.6864
782.9576,95.5127
783.9218,95.3488
784.8860,95.204
785.8503,95.0818
786.8145,94.9769
787.7787,94.8769
788.7430,94.7685
789.7072,94.6438
790.6714,94.5047
791.6357,94.3603
792.5999,94.2205
793.5641,94.0893
794.5284,93.9616
795.4926,93.8265
796.4568,93.6749
797.4211,93.505
798.3853,93.3239
799.3495,93.1434
800.3138,92.9734
801.2780,92.8171
802.2422,92.6686
803.2065,92.515
804.1707,92.3411
805.1349,92.1331
806.0992,91.8828
807.0634,91.5894
808.0276,91.2597
808.9919,90.9061
809.9561,90.5437
810.9203,90.1863
811.8846,89.8444
812.8488,89.5241
813.8130,89.2288
814.7773,88.9609
815.7415,88.7228
816.7057,88.5159
817.6700,88.3395
818.6342,88.1895
819.5984,88.0601
820.5627,87.9458
821.5269,87.8438
822.4911,87.7546
823.4554,87.681
824.4196,87.6264
825.3839,87.5924
826.3481,87.5777
827.3123,87.5771
828.2766,87.5804
829.2408,87.572
830.2050,87.5325
831.1693,87.4433
832.1335,87.2916
833.0977,87.0747
834.0620,86.8012
835.0262,86.4867
835.9904,86.1484
836.9547,85.7997
837.9189,85.4467
838.8831,85.09
839.8474,84.7276
840.8116,84.3587
841.7758,83.987
842.7401,83.6213
843.7043,83.274
844.6685,82.9575
845.6328,82.6809
846.5970,82.447
847.5612,82.2527
848.5255,82.0907
849.4897,81.9528
850.4539,81.8336
851.4182,81.7306
852.3824,81.6437
853.3466,81.573
854.3109,81.5174
855.2751,81.4734
856.2393,81.4367
857.2036,81.4034
858.1678,81.3721
859.1320,81.3444
860.0963,81.3247
861.0605,81.3192
862.0247,81.3341
862.9890,81.3742
863.9532,81.4416
864.9174,81.5358
865.8817,81.653
866.8459,81.7875
867.8101,81.9329
868.7744,82.0846
869.7386,82.2399
870.7028,82.3969
871.6671,82.5506
872.6313,82.6899
873.5955,82.7989
874.5598,82.8625
875.5240,82.8753
876.4882,82.8479
877.4525,82.8051
878.4167,82.7759
879.3809,82.781
880.3452,82.8248
881.3094,82.8963
882.2736,82.9784
883.2379,83.058
884.2021,83.1296
885.1663,83.1933
886.1306,83.2484
887.0948,83.2913
888.0590,83.3187
889.0233,83.3341
889.9875,83.3504
890.9517,83.3865
891.9160,83.4583
892.8802,83.5703
893.8444,83.7136
894.8087,83.87
895.7729,84.0208
896.7371,84.153
897.7014,84.2621
898.6656,84.35
899.6298,84.4213
900.5941,84.4797
901.5583,84.5273
902.5225,84.5642
903.4868,84.5903
904.4510,84.6059
905.4152,84.6126
906.3795,84.6112
907.3437,84.6016
908.3079,84.5818
909.2722,84.5506
910.2364,84.5102
911.2006,84.4691
912.1649,84.4408
913.1291,84.4394
914.0933,84.4745
915.0576,84.548
916.0218,84.6554
916.9860,84.7897
917.9503,84.946
918.9145,85.1232
919.8787,85.3239
920.8430,85.552
921.8072,85.8108
922.7714,86.1025
923.7357,86.4271
924.6999,86.7825
925.6641,87.1642
926.6284,87.5687
927.5926,87.996
928.5568,88.4526
929.5211,88.9513
930.4853,89.5074
931.4495,90.1333
932.4138,90.8351
933.3780,91.6114
934.3422,92.4539
935.3065,93.3481
936.2707,94.2716
937.2349,95.1935
938.1992,96.0761
939.1634,96.8817
940.1276,97.581
941.0919,98.1602
942.0561,98.6215
943.0203,98.9772
943.9846,99.2415
944.9488,99.425
945.9130,99.5337
946.8773,99.5731
947.8415,99.5517
948.8057,99.5075
949.7700,99.5003
950.7342,99.4682
951.6984,99.4154
952.6627,99.3401
953.6269,99.2378
954.5911,99.1032
955.5554,98.9334
956.5196,98.7271
957.4838,98.4847
958.4481,98.2068
959.4123,97.8938
960.3765,97.5461
961.3408,97.1647
962.3050,96.7526
963.2692,96.3158
964.2335,95.8627
965.1977,95.4039
966.1619,94.9499
967.1262,94.5098
968.0904,94.0901
969.0546,93.6948
970.0189,93.3271
970.9831,92.9894
971.9473,92.6848
972.9116,92.4154
973.8758,92.1819
974.8400,91.9811
975.8043,91.8049
976.7685,91.6405
977.7327,91.4718
978.6970,91.283
979.6612,91.0613
980.6254,90.7983
981.5897,90.49
982.5539,90.1347
983.5181,89.7326
984.4824,89.2864
985.4466,88.8035
986.4108,88.2976
987.3751,87.7871
988.3393,87.2927
989.3035,86.8326
990.2678,86.4209
991.2320,86.0659
992.1962,85.7717
993.1605,85.5381
994.1247,85.3607
995.0889,85.2317
996.0532,85.1405
997.0174,85.0758
997.9816,85.0269
998.9459,84.9839
999.9101,84.9362
1000.8743,84.8701
1001.8386,84.768
1002.8028,84.6093
1003.7670,84.3725
1004.7313,84.0387
1005.6955,83.5939
1006.6597,83.0307
1007.6240,82.3477
1008.5882,81.5473
1009.5524,80.6342
1010.5167,79.6136
1011.4809,78.4917
1012.4451,77.277
1013.4094,75.9803
1014.3736,74.6149
1015.3378,73.1944
1016.3021,71.7331
1017.2663,70.2464
1018.2305,68.7513
1019.1948,67.2634
1020.1590,65.7903
1021.1232,64.3265
1022.0875,62.8562
1023.0517,61.3667
1024.0160,59.8663
1024.9802,58.3948
1025.9445,57.0174
1026.9087,55.8003
1027.8729,54.782
1028.8372,53.9578
1029.8014,53.2854
1030.7656,52.7098
1031.7299,52.1905
1032.6941,51.7175
1033.6583,51.3082
1034.6226,50.992
1035.5868,50.7925
1036.5510,50.7177
1037.5153,50.758
1038.4795,50.8917
1039.4437,51.0905
1040.4080,51.3268
1041.3722,51.5799
1042.3364,51.8411
1043.3007,52.1164
1044.2649,52.4227
1045.2291,52.7809
1046.1934,53.2078
1047.1576,53.7128
1048.1218,54.2982
1049.0861,54.9625
1050.0503,55.7017
1051.0145,56.5063
1051.9788,57.3598
1052.9430,58.2403
1053.9072,59.1306
1054.8715,60.0283
1055.8357,60.9508
1056.7999,61.924
1057.7642,62.9592
1058.7284,64.0289
1059.6926,65.0601
1060.6569,65.9542
1061.6211,66.6294
1062.5853,67.064
1063.5496,67.3147
1064.5138,67.495
1065.4780,67.7242
1066.4423,68.0698
1067.4065,68.5182
1068.3707,68.9851
1069.3350,69.361
1070.2992,69.562
1071.2634,69.5614
1072.2277,69.3877
1073.1919,69.0985
1074.1561,68.7502
1075.1204,68.3785
1076.0846,67.9984
1077.0488,67.6135
1078.0131,67.2271
1078.9773,66.846
1079.9415,66.4792
1080.9058,66.1335
1081.8700,65.8115
1082.8342,65.5132
1083.7985,65.2384
1084.7627,64.9913
1085.7269,64.7828
1086.6912,64.6307
1087.6554,64.5546
1088.6196,64.5673
1089.5839,64.6644
1090.5481,64.8205
1091.5123,64.994
1092.4766,65.1406
1093.4408,65.2296
1094.4050,65.2537
1095.3693,65.2277
1096.3335,65.1779
1097.2977,65.1279
1098.2620,65.09
1099.2262,65.0642
1100.1904,65.0442
1101.1547,65.0242
1102.1189,65.0035
1103.0831,64.9866
1104.0474,64.9811
1105.0116,64.9961
1105.9758,65.042
1106.9401,65.1308
1107.9043,65.2772
1108.8685,65.4975
1109.8328,65.8082
1110.7970,66.224
1111.7612,66.757
1112.7255,67.4164
1113.6897,68.2077
1114.6539,69.1328
1115.6182,70.1892
1116.5824,71.3698
1117.5466,72.6639
1118.5109,74.0593
1119.4751,75.5441
1120.4393,77.1072
1121.4036,78.7382
1122.3678,80.4245
1123.3320,82.1502
1124.2963,83.8951
1125.2605,85.6357
1126.2247,87.3476
1127.1890,89.007
1128.1532,90.5922
1129.1174,92.0849
1130.0817,93.4701
1131.0459,94.7369
1132.0101,95.8776
1132.9744,96.8876
1133.9386,97.7637
1134.9028,98.5039
1135.8671,99.1076
1136.8313,99.5767
1137.7955,99.9166
1138.7598,100.12
1139.7240,100.161
1140.6882,100.099
1141.6525,99.9423
1142.6167,99.6973
1143.5809,99.3722
1144.5452,98.9801
1145.5094,98.5394
1146.4736,98.0725
1147.4379,97.6024
1148.4021,97.1499
1149.3663,96.732
1150.3306,96.3619
1151.2948,96.05
1152.2590,95.8024
1153.2233,95.6199
1154.1875,95.4956
1155.1517,95.4147
1156.1160,95.3567
1157.0802,95.2997
1158.0444,95.2247
1159.0087,95.1184
1159.9729,94.9734
1160.9371,94.7862
1161.9014,94.5553
1162.8656,94.28
1163.8298,93.9614
1164.7941,93.6027
1165.7583,93.2101
1166.7225,92.7916
1167.6868,92.3554
1168.6510,91.9071
1169.6152,91.4493
1170.5795,90.981
1171.5437,90.4999
1172.5079,90.0037
1173.4722,89.4918
1174.4364,88.9648
1175.4006,88.4233
1176.3649,87.8672
1177.3291,87.2947
1178.2933,86.7038
1179.2576,86.0936
1180.2218,85.4661
1181.1860,84.8266
1182.1503,84.1832
1183.1145,83.545
1184.0787,82.9203
1185.0430,82.3143
1186.0072,81.7285
1186.9714,81.16
1187.9357,80.6035
1188.8999,80.0532
1189.8641,79.5056
1190.8284,78.9602
1191.7926,78.4198
1192.7568,77.8881
1193.7211,77.3686
1194.6853,76.8637
1195.6495,76.3739
1196.6138,75.8988
1197.5780,75.4367
1198.5422,74.985
1199.5065,74.5732
1200.4707,74.1321
1201.4349,73.6981
1202.3992,73.2753
1203.3634,72.8695
1204.3276,72.4875
1205.2919,72.1347
1206.2561,71.8147
1207.2203,71.5289
1208.1846,71.2775
1209.1488,71.0608
1210.1130,70.8795
1211.0773,70.7352
1212.0415,70.6296
1213.0057,70.5639
1213.9700,70.5381
1214.9342,70.5515
1215.8984,70.6021
1216.8627,70.688
1217.8269,70.8069
1218.7911,70.9558
1219.7554,71.1304
1220.7196,71.3251
1221.6838,71.5328
1222.6481,71.7453
1223.6123,71.9544
1224.5765,72.1526
1225.5408,72.3336
1226.5050,72.4925
1227.4692,72.6252
1228.4335,72.727
1229.3977,72.794
1230.3619,72.8256
1231.3262,72.8296
1232.2904,72.8245
1233.2546,72.8371
1234.2189,72.8942
1235.1831,73.0115
1236.1473,73.1891
1237.1116,73.4146
1238.0758,73.6758
1239.0400,73.9714
1240.0043,74.313
1240.9685,74.7133
1241.9327,75.1694
1242.8970,75.6519
1243.8612,76.1104
1244.8254,76.4941
1245.7897,76.7747
1246.7539,76.9573
1247.7181,77.0731
1248.6824,77.1595
1249.6466,77.2415
1250.6108,77.3234
1251.5751,77.3937
1252.5393,77.4358
1253.5035,77.4386
1254.4678,77.3989
1255.4320,77.3206
1256.3962,77.2106
1257.3605,77.0772
1258.3247,76.9304
1259.2889,76.781
1260.2532,76.6395
1261.2174,76.5137
1262.1816,76.4072
1263.1459,76.3205
1264.1101,76.2529
1265.0743,76.2037
1266.0386,76.1733
1267.0028,76.1622
1267.9670,76.1718
1268.9313,76.2046
1269.8955,76.2636
1270.8597,76.352
1271.8240,76.4716
1272.7882,76.6222
1273.7524,76.8019
1274.7167,77.0085
1275.6809,77.2404
1276.6451,77.4959
1277.6094,77.773
1278.5736,78.0676
1279.5378,78.3744
1280.5021,78.687
1281.4663,78.9996
1282.4305,79.3076
1283.3948,79.6077
1284.3590,79.8982
1285.3232,80.1792
1286.2875,80.4524
1287.2517,80.7206
1288.2159,80.9862
1289.1802,81.2496
1290.1444,81.5094
1291.1086,81.7629
1292.0729,82.0081
1293.0371,82.2452
1294.0013,82.4765
1294.9656,82.7049
1295.9298,82.932
1296.8940,83.1575
1297.8583,83.3784
1298.8225,83.5898
1299.7867,83.7858
1300.7510,83.9602
1301.7152,84.1075
1302.6794,84.2251
1303.6437,84.3141
1304.6079,84.3783
1305.5721,84.4221
1306.5364,84.4479
1307.5006,84.4549
1308.4648,84.4405
1309.4291,84.4032
1310.3933,84.3455
1311.3575,84.2739
1312.3218,84.1967
1313.2860,84.1201
1314.2502,84.046
1315.2145,83.9734
1316.1787,83.9013
1317.1429,83.8313
1318.1072,83.767
1319.0714,83.7115
1320.0356,83.6637
1320.9999,83.6185
1321.9641,83.5705
1322.9283,83.5173
1323.8926,83.4614
1324.8568,83.4088
1325.8210,83.3675
1326.7853,83.3452
1327.7495,83.3491
1328.7137,83.3852
1329.6780,83.4578
1330.6422,83.5673
1331.6064,83.7068
1332.5707,83.8615
1333.5349,84.0122
1334.4991,84.1435
1335.4634,84.2513
1336.4276,84.3493
1337.3918,84.4684
1338.3561,84.644
1339.3203,84.89
1340.2845,85.179
1341.2488,85.4582
1342.2130,85.6846
1343.1772,85.8436
1344.1415,85.9428
1345.1057,85.9978
1346.0699,86.024
1347.0342,86.0331
1347.9984,86.032
1348.9626,86.022
1349.9269,86.0004
1350.8911,85.963
1351.8553,85.9087
1352.8196,85.8416
1353.7838,85.7704
1354.7480,85.7038
1355.7123,85.6444
1356.6765,85.5859
1357.6407,85.5176
1358.6050,85.4323
1359.5692,85.3332
1360.5334,85.2391
1361.4977,85.1807
1362.4619,85.1794
1363.4261,85.2241
1364.3904,85.2793
1365.3546,85.3161
1366.3188,85.3283
1367.2831,85.3241
1368.2473,85.3118
1369.2115,85.2926
1370.1758,85.2612
1371.1400,85.2135
1372.1042,85.1547
1373.0685,85.1031
1374.0327,85.0818
1374.9969,85.1
1375.9612,85.1423
1376.9254,85.1841
1377.8896,85.214
1378.8539,85.2381
1379.8181,85.27
1380.7823,85.3187
1381.7466,85.3841
1382.7108,85.463
1383.6750,85.5595
1384.6393,85.6881
1385.6035,85.8653
1386.5677,86.0837
1387.5320,86.2882
1388.4962,86.3934
1389.4604,86.3443
1390.4247,86.1483
1391.3889,85.8581
1392.3531,85.5467
1393.3174,85.2971
1394.2816,85.1854
1395.2458,85.2406
1396.2101,85.4092
1397.1743,85.5799
1398.1385,85.6547
1399.1028,85.5975
1400.0670,85.427
1401.0313,85.1841
1401.9955,84.9062
1402.9597,84.62
1403.9240,84.3457
1404.8882,84.1008
1405.8524,83.8948
1406.8167,83.7235
1407.7809,83.5735
1408.7451,83.4339
1409.7094,83.2999
1410.6736,83.169
1411.6378,83.0364
1412.6021,82.8944
1413.5663,82.7376
1414.5305,82.5642
1415.4948,82.3709
1416.4590,82.1521
1417.4232,81.91
1418.3875,81.6636
1419.3517,81.4243
1420.3159,81.1767
1421.2802,80.9059
1422.2444,80.6236
1423.2086,80.3567
1424.1729,80.1274
1425.1371,79.9451
1426.1013,79.8094
1427.0656,79.7209
1428.0298,79.687
1428.9940,79.7184
1429.9583,79.8148
1430.9225,79.9566
1431.8867,80.1182
1432.8510,80.2885
1433.8152,80.4714
1434.7794,80.6716
1435.7437,80.8768
1436.7079,81.0405
1437.6721,81.0911
1438.6364,80.9878
1439.6006,80.7528
1440.5648,80.4375
1441.5291,80.0802
1442.4933,79.6953
1443.4575,79.2813
1444.4218,78.833
1445.3860,78.3491
1446.3502,77.8378
1447.3145,77.3197
1448.2787,76.8237
1449.2429,76.3728
1450.2072,75.9764
1451.1714,75.6371
1452.1356,75.3573
1453.0999,75.1334
1454.0641,74.9438
1455.0283,74.759
1455.9926,74.6006
1456.9568,74.5768
1457.9210,74.6943
1458.8853,74.7732
1459.8495,74.7259
1460.8137,74.6246
1461.7780,74.5781
1462.7422,74.6852
1463.7064,75.0323
1464.6707,75.6503
1465.6349,76.4426
1466.5991,77.2372
1467.5634,77.9389
1468.5276,78.5741
1469.4918,79.2262
1470.4561,79.9826
1471.4203,80.9183
1472.3845,82.0536
1473.3488,83.257
1474.3130,84.2775
1475.2772,84.9679
1476.2415,85.3609
1477.2057,85.5538
1478.1699,85.6267
1479.1342,85.6361
1480.0984,85.6295
1481.0626,85.6468
1482.0269,85.709
1482.9911,85.8088
1483.9553,85.9187
1484.9196,86.0062
1485.8838,86.0448
1486.8480,86.0256
1487.8123,85.9806
1488.7765,85.9842
1489.7407,86.07
1490.7050,86.1653
1491.6692,86.1848
1492.6334,86.115
1493.5977,85.9816
1494.5619,85.8001
1495.5261,85.5701
1496.4904,85.303
1497.4546,85.0338
1498.4188,84.7792
1499.3831,84.5183
1500.3473,84.2449
1501.3115,83.9923
1502.2758,83.7966
1503.2400,83.6483
1504.2042,83.454
1505.1685,83.0307
1506.1327,82.2487
1507.0969,81.3448
1508.0612,80.7162
1509.0254,80.3167
1509.9896,79.9386
1510.9539,79.5285
1511.9181,79.1208
1512.8823,78.7764
1513.8466,78.5778
1514.8108,78.6213
1515.7750,78.9717
1516.7393,79.6203
1517.7035,80.5165
1518.6677,81.6581
1519.6320,83.1198
1520.5962,84.9355
1521.5604,86.9365
1522.5247,88.8057
1523.4889,90.3492
1524.4531,91.6257
1525.4174,92.8034
1526.3816,93.9633
1527.3458,95.0464
1528.3101,95.9505
1529.2743,96.6405
1530.2385,97.169
1531.2028,97.6329
1532.1670,98.117
1533.1312,98.6362
1534.0955,99.1193
1535.0597,99.4901
1536.0239,99.7462
1536.9882,99.9186
1537.9524,99.987
1538.9166,99.872
1539.8809,99.6041
1540.8451,99.496
1541.8093,99.7468
1542.7736,100.131
1543.7378,100.441
1544.7020,100.645
1545.6663,100.757
1546.6305,100.789
1547.5947,100.76
1548.5590,100.694
1549.5232,100.61
1550.4874,100.537
1551.4517,100.444
1552.4159,100.329
1553.3801,100.216
1554.3444,100.139
1555.3086,100.11
1556.2728,100.093
1557.2371,100.05
1558.2013,100.072
1559.1655,100.21
1560.1298,100.185
1561.0940,99.8537
1562.0582,99.3727
1563.0225,98.916
1563.9867,98.5625
1564.9509,98.3125
1565.9152,98.1209
1566.8794,97.9244
1567.8436,97.6725
1568.8079,97.357
1569.7721,97.0103
1570.7363,96.6705
1571.7006,96.3596
1572.6648,96.0743
1573.6290,95.7739
1574.5933,95.3911
1575.5575,94.8982
1576.5217,94.3661
1577.4860,93.884
1578.4502,93.4542
1579.4144,93.0379
1580.3787,92.6116
1581.3429,92.1631
1582.3071,91.6838
1583.2714,91.1759
1584.2356,90.653
1585.1998,90.1282
1586.1641,89.606
1587.1283,89.0865
1588.0925,88.5726
1589.0568,88.0721
1590.0210,87.5922
1590.9852,87.1347
1591.9495,86.6983
1592.9137,86.2855
1593.8779,85.9053
1594.8422,85.5685
1595.8064,85.2777
1596.7706,85.0243
1597.7349,84.7944
1598.6991,84.5777
1599.6633,84.3731
1600.6276,84.188
1601.5918,84.0324
1602.5560,83.9122
1603.5203,83.8232
1604.4845,83.7536
1605.4487,83.6939
1606.4130,83.6464
1607.3772,83.6294
1608.3414,83.6673
1609.3057,83.7694
1610.2699,83.9185
1611.2341,84.0891
1612.1984,84.2762
1613.1626,84.5055
1614.1268,84.8297
1615.0911,85.319
1616.0553,86.0007
1617.0195,86.7566
1617.9838,87.3795
1618.9480,87.7896
1619.9122,88.0748
1620.8765,88.3666
1621.8407,88.7491
1622.8049,89.2285
1623.7692,89.7394
1624.7334,90.1974
1625.6976,90.5692
1626.6619,90.8839
1627.6261,91.1787
1628.5903,91.4568
1629.5546,91.698
1630.5188,91.8973
1631.4830,92.0741
1632.4473,92.2432
1633.4115,92.3883
1634.3757,92.4863
1635.3400,92.575
1636.3042,92.7144
1637.2684,92.8542
1638.2327,92.9119
1639.1969,92.8963
1640.1611,92.8651
1641.1254,92.8613
1642.0896,92.8961
1643.0538,92.9448
1644.0181,92.9479
1644.9823,92.8441
1645.9465,92.6523
1646.9108,92.4908
1647.8750,92.4494
1648.8392,92.5336
1649.8035,92.7267
1650.7677,92.9828
1651.7319,93.2023
1652.6962,93.3113
1653.6604,93.3242
1654.6246,93.1809
1655.5889,92.8427
1656.5531,92.4387
1657.5173,92.1095
1658.4816,91.9055
1659.4458,91.7981
1660.4100,91.7244
1661.3743,91.6378
1662.3385,91.531
1663.3027,91.4139
1664.2670,91.2917
1665.2312,91.1677
1666.1954,91.038
1667.1597,90.8811
1668.1239,90.6773
1669.0881,90.4523
1670.0524,90.2734
1671.0166,90.1774
1671.9808,90.1455
1672.9451,90.1461
1673.9093,90.1484
1674.8735,90.1092
1675.8378,89.9803
1676.8020,89.7429
1677.7662,89.4364
1678.7305,89.1412
1679.6947,88.9267
1680.6589,88.8077
1681.6232,88.7342
1682.5874,88.6329
1683.5516,88.4857
1684.5159,88.3114
1685.4801,88.0716
1686.4443,87.7393
1687.4086,87.3619
1688.3728,87.0062
1689.3370,86.7132
1690.3013,86.4939
1691.2655,86.3348
1692.2297,86.2001
1693.1940,86.0356
1694.1582,85.7847
1695.1224,85.4251
1696.0867,85.0114
1697.0509,84.6721
1698.0151,84.5179
1698.9794,84.52
1699.9436,84.5141
1700.9078,84.3562
1701.8721,84.0413
1702.8363,83.6715
1703.8005,83.3626
1704.7648,83.1862
1705.7290,83.1523
1706.6932,83.215
1707.6575,83.3044
1708.6217,83.3726
1709.5859,83.416
1710.5502,83.4571
1711.5144,83.5165
1712.4786,83.599
1713.4429,83.6999
1714.4071,83.8336
1715.3713,84.0736
1716.3356,84.5353
1717.2998,85.1982
1718.2640,85.8152
1719.2283,86.1887
1720.1925,86.3548
1721.1567,86.4572
1722.1210,86.6085
1723.0852,86.848
1724.0494,87.1537
1725.0137,87.4734
1725.9779,87.7607
1726.9421,87.9988
1727.9064,88.2032
1728.8706,88.4066
1729.8348,88.6435
1730.7991,88.9444
